   emu(eV)      n(10^20/cm3)               DOS            intDOS       tau(1E-14s)         |vk|(m/s)        sigma(S/m)       ke(Wm-1K-1)      L(1E-8V2K-2)           S(uV/K)   PF(1E-4Wm-1K-2)
  -3.00000    -1994.7516         1.1416833         13.690276         3.8504612         501011.14         11315988.         175.21824         1.9355165         43.149537         210.69040    
  -2.99000    -1992.5554         1.1285354         13.701627         3.8670892         497036.55         11056214.         169.88499         1.9206958         45.398261         227.86880    
  -2.98000    -1990.3845         1.1155156         13.712847         3.8827617         492830.31         10788334.         164.48379         1.9058063         47.755942         246.04197    
  -2.97000    -1988.2387         1.1025826         13.723938         3.8974396         488391.26         10512477.         159.02599         1.8909197         50.227938         265.21357    
  -2.96000    -1986.1178         1.0896879         13.734899         3.9110881         483719.75         10228820.         153.52408         1.8761215         52.819653         285.37546    
  -2.95000    -1984.0220         1.0767756         13.745731         3.9236765         478817.85         9937594.8         147.99164         1.8615124         55.536452         306.50498    
  -2.94000    -1981.9512         1.0637815         13.756434         3.9351792         473689.62         9639092.5         142.44331         1.8472085         58.383589         328.56230    
  -2.93000    -1979.9056         1.0506332         13.767007         3.9455759         468341.32         9333674.2         136.89462         1.8333432         61.366154         351.48796    
  -2.92000    -1977.8857         1.0372496         13.777446         3.9548521         462781.62         9021775.5         131.36200         1.8200686         64.489023         375.20068    
  -2.91000    -1975.8920         1.0235404         13.787750         3.9629988         457021.86         8703911.1         125.86273         1.8075600         67.756802         399.59518    
  -2.90000    -1973.9253         1.0094066         13.797916         3.9700129         451076.19         8380676.5         120.41502         1.7960217         71.173725         424.53985    
  -2.89000    -1971.9863        0.99474072         13.807937         3.9758968         444961.68         8052750.9         115.03808         1.7856953         74.743470         449.87388    
  -2.88000    -1970.0764        0.97942798         13.817808         3.9806578         438698.36         7720898.9         109.75219         1.7768687         78.468888         475.40403    
  -2.87000    -1968.1968        0.96334860         13.827523         3.9843076         432309.16         7385973.3         104.57871         1.7698870         82.351625         500.90121    
  -2.86000    -1966.3491        0.94638111         13.837072         3.9868618         425819.77         7048918.1         99.539936         1.7651634         86.391664         526.09739    
  -2.85000    -1964.5353        0.92840676         13.846447         3.9883378         419258.41         6710771.0         94.658965         1.7631909         90.586786         550.68357    
  -2.84000    -1962.7572        0.90931499         13.855637         3.9887543         412655.47         6372662.4         89.959376         1.7645564         94.931973         574.30940    
  -2.83000    -1961.0173        0.88900961         13.864629         3.9881285         406043.15         6035811.8         85.464951         1.7699556         99.418742         596.58485    
  -2.82000    -1959.3179        0.86741543         13.873413         3.9864750         399454.95         5701518.6         81.199361         1.7802135         104.03440         617.08428    
  -2.81000    -1957.6616        0.84448495         13.881973         3.9838024         392925.23         5371147.3         77.185871         1.7963078         108.76118         635.35270    
  -2.80000    -1956.0509        0.82020460         13.890298         3.9801114         386488.75         5046108.9         73.447079         1.8193989         113.57521         650.91413    
  -2.79000    -1954.4885        0.79459994         13.898373         3.9753914         380180.31         4727837.6         70.004642         1.8508631         118.44529         663.28187    
  -2.78000    -1952.9769        0.76773944         13.906186         3.9696181         374034.55         4417764.4         66.878991         1.8923313         123.33144         671.97043    
  -2.77000    -1951.5184        0.73973615         13.913724         3.9627498         368086.04         4117290.4         64.088951         1.9457260         128.18319         676.50913    
  -2.76000    -1950.1150        0.71074703         13.920977         3.9547246         362369.55         3827758.3         61.651256         2.0132951         132.93765         676.45744    
  -2.75000    -1948.7685        0.68096976         13.927936         3.9454567         356920.71         3550425.8         59.579881         2.0976315         137.51741         671.42235    
  -2.74000    -1947.4803        0.65063725         13.934595         3.9348334         351776.85         3286440.0         57.885150         2.2016662         141.82850         661.07798    
  -2.73000    -1946.2510        0.62001009         13.940948         3.9227119         346978.10         3036813.8         56.572589         2.3286161         145.75851         645.18756    
  -2.72000    -1945.0811        0.58936756         13.946995         3.9089163         342568.47         2802406.5         55.641502         2.4818625         149.17540         623.62796    
  -2.71000    -1943.9702        0.55899796         13.952736         3.8932349         338596.77         2583906.9         55.083279         2.6647283         151.92746         596.41620    
  -2.70000    -1942.9176        0.52918889         13.958176         3.8754200         335117.25         2381821.2         54.879533         2.8801245         153.84508         563.73676    
  -2.69000    -1941.9219        0.50021810         13.963323         3.8551875         332189.37         2196465.3         55.000206         3.1300407         154.74525         525.96763    
  -2.68000    -1940.9812        0.47234541         13.968185         3.8322213         329876.80         2027962.3         55.401934         3.4148770         154.43961         483.70129    
  -2.67000    -1940.0932        0.44580604         13.972774         3.8061800         328245.04         1876244.9         56.027073         3.7326600         152.74645         437.75568    
  -2.66000    -1939.2551        0.42080547         13.977106         3.7767091         327357.71         1741063.1         56.803862         4.0782455         149.50712         389.16901    
  -2.65000    -1938.4637        0.39751596         13.981196         3.7434586         327271.36         1621996.7         57.648268         4.4426932         144.60553         339.17182    
  -2.64000    -1937.7156        0.37607468         13.985062         3.7061063         328029.22         1518471.6         58.467878         4.8130532         137.98906         289.13189    
  -2.63000    -1937.0072        0.35658328         13.988724         3.6643865         329654.27         1429780.8         59.167916         5.1728136         129.68713         240.47130    
  -2.62000    -1936.3345        0.33910895         13.992201         3.6181207         332142.67         1355106.6         59.658951         5.5031602         119.82348         194.56168    
  -2.61000    -1935.6936        0.32368651         13.995513         3.5672489         335458.62         1293545.6         59.865269         5.7849980         108.61791         152.61057    
  -2.60000    -1935.0806        0.31032166         13.998681         3.5118559         339531.73         1244133.0         59.732483         6.0014165         96.375345         115.55765    
  -2.59000    -1934.4915        0.29899487         14.001726         3.4521871         344257.74         1205867.6         59.232846         6.1400652         83.462279         84.000159    
  -2.58000    -1933.9223        0.28966578         14.004668         3.3886515         349502.88         1177733.8         58.367124         6.1948551         70.274347         58.162196    
  -2.57000    -1933.3693        0.28227788         14.007526         3.3218077         355111.48         1158722.7         57.162704         6.1665644         57.200723         37.912511    
  -2.56000    -1932.8288        0.27676310         14.010320         3.2523341         360915.77         1147849.1         55.668455         6.0622577         44.591819         22.824179    
  -2.55000    -1932.2972        0.27304627         14.013067         3.1809871         366746.51         1144166.4         53.947574         5.8937642         32.735384         12.260948    
  -2.54000    -1931.7711        0.27104911         14.015786         3.1085522         372443.06         1146777.7         52.069903         5.6756754         21.843579         5.4717575    
  -2.53000    -1931.2472        0.27069378         14.018494         3.0357956         377861.51         1154843.8         50.104999         5.4233523         12.050830         1.6770931    
  -2.52000    -1930.7226        0.27190576         14.021205         2.9634216         382880.38         1167588.5         48.116804         5.1513016         3.4202268        0.13658393    
  -2.51000    -1930.1941        0.27461632         14.023937         2.8920415         387403.48         1184301.0         46.160211         4.8720943        -4.0446963        0.19374654    
  -2.50000    -1929.6590        0.27876434         14.026702         2.8221544         391360.31         1204336.9         44.279414         4.5958291        -10.385900         1.2990812    
  -2.49000    -1929.1145        0.28429770         14.029517         2.7541418         394704.55         1227116.9         42.507669         4.3300346        -15.676904         3.0158278    
  -2.48000    -1928.5580        0.29117429         14.032393         2.6882713         397411.19         1252124.9         40.868029         4.0798675        -20.010475         5.0137472    
  -2.47000    -1927.9869        0.29936260         14.035345         2.6247089         399472.99         1278905.3         39.374630         3.8484700        -23.488654         7.0559363    
  -2.46000    -1927.3987        0.30884209         14.038384         2.5635353         400896.85         1307059.5         38.034210         3.6373833        -26.215241         8.9826203    
  -2.45000    -1926.7910        0.31960326         14.041526         2.5047636         401700.35         1336241.5         36.847652         3.4469492        -28.290522         10.694657    
  -2.44000    -1926.1611        0.33164750         14.044781         2.4483562         401908.66         1366154.0         35.811410         3.2766629        -29.807884         12.138414    
  -2.43000    -1925.5068        0.34498677         14.048163         2.3942403         401552.03         1396543.2         34.918758         3.1254634        -30.851908         13.292860    
  -2.42000    -1924.8253        0.35964324         14.051685         2.3423204         400663.72         1427193.5         34.160828         2.9919584        -31.497577         14.159149    
  -2.41000    -1924.1142        0.37564889         14.055360         2.2924872         399278.42         1457922.5         33.527442         2.8745906        -31.810251         14.752602    
  -2.40000    -1923.3708        0.39304532         14.059203         2.2446253         397430.98         1488576.3         33.007754         2.7717552        -31.846148         15.096801    
  -2.39000    -1922.5923        0.41188360         14.063226         2.1986181         395155.54         1519025.1         32.590712         2.6818773        -31.653094         15.219392    
  -2.38000    -1921.7760        0.43222445         14.067445         2.1543516         392484.79         1549159.0         32.265397         2.6034607        -31.271393         15.149226    
  -2.37000    -1920.9188        0.45413858         14.071876         2.1117166         389449.53         1578885.0         32.021251         2.5351158        -30.734695         14.914488    
  -2.36000    -1920.0175        0.47770728         14.076534         2.0706105         386078.25         1608123.6         31.848234         2.4755741        -30.070838         14.541543    
  -2.35000    -1919.0691        0.50302311         14.081436         2.0309389         382397.00         1636805.9         31.736933         2.4236940        -29.302619         14.054328    
  -2.34000    -1918.0698        0.53019084         14.086600         1.9926160         378429.19         1664870.7         31.678636         2.3784606        -28.448536         13.474118    
  -2.33000    -1917.0161        0.55932844         14.092046         1.9555649         374195.68         1692262.3         31.665372         2.3389822        -27.523465         12.819583    
  -2.32000    -1915.9041        0.59056826         14.097794         1.9197178         369714.89         1718928.0         31.689926         2.3044833        -26.539312         12.107013    
  -2.31000    -1914.7294        0.62405826         14.103865         1.8850162         365003.01         1744816.6         31.745829         2.2742955        -25.505592         11.350647    
  -2.30000    -1913.4876        0.65996326         14.110283         1.8514103         360074.33         1769877.8         31.827317         2.2478471        -24.429939         10.563018    
  -2.29000    -1912.1739        0.69846623         14.117073         1.8188589         354941.63         1794060.9         31.929283         2.2246516        -23.318529         9.7552743    
  -2.28000    -1910.7830        0.73976930         14.124262         1.7873286         349616.61         1817315.4         32.047217         2.2042966        -22.176420         8.9374405    
  -2.27000    -1909.3093        0.78409475         14.131878         1.7567936         344110.34         1839590.8         32.177142         2.1864334        -21.007808         8.1186291    
  -2.26000    -1907.7467        0.83168545         14.139954         1.7272346         338433.69         1860836.9         32.315567         2.1707684        -19.816237         7.3071944    
  -2.25000    -1906.0887        0.88280505         14.148524         1.6986378         332597.80         1881004.1         32.459428         2.1570546        -18.604753         6.5108477    
  -2.24000    -1904.3281        0.93773761         14.157623         1.6709940         326614.40         1900043.8         32.606048         2.1450853        -17.376035         5.7367373    
  -2.23000    -1902.4573        0.99678666         14.167292         1.6442970         320496.15         1917909.0         32.753092         2.1346875        -16.132495         4.9915003    
  -2.22000    -1900.4680         1.0602735         14.177574         1.6185430         314256.90         1934554.7         32.898530         2.1257172        -14.876359         4.2812868    
  -2.21000    -1898.3514         1.1285347         14.188514         1.5937284         307911.85         1949938.4         33.040604         2.1180543        -13.609723         3.6117646    
  -2.20000    -1896.0977         1.2019189         14.200161         1.5698497         301477.64         1964020.6         33.177792         2.1115991        -12.334600         2.9881072    
  -2.19000    -1893.6968         1.2807821         14.212570         1.5469014         294972.32         1976765.3         33.308786         2.1062683        -11.052955         2.4149711    
  -2.18000    -1891.1377         1.3654827         14.225797         1.5248755         288415.27         1988141.0         33.432460         2.1019926        -9.7667253         1.8964663    
  -2.17000    -1888.4089         1.4563745         14.239901         1.5037608         281827.06         1998120.2         33.547849         2.0987131        -8.4778314         1.4361215    
  -2.16000    -1885.4979         1.5537995         14.254946         1.4835415         275229.13         2006681.2         33.654117         2.0963792        -7.1881691         1.0368477    
  -2.15000    -1882.3918         1.6580796         14.270999         1.4641974         268643.53         2013807.2         33.750547         2.0949465        -5.8995810        0.70090672    
  -2.14000    -1879.0771         1.7695074         14.288131         1.4457036         262092.47         2019487.5         33.836518         2.0943753        -4.6138103        0.42989326    
  -2.13000    -1875.5396         1.8883376         14.306414         1.4280300         255597.92         2023716.8         33.911516         2.0946308        -3.3324472        0.22473789    
  -2.12000    -1871.7650         2.0147782         14.325923         1.4111416         249181.07         2026495.1         33.975138         2.0956835        -2.0568805        0.85736087E-01
  -2.11000    -1867.7381         2.1489835         14.346736         1.3949992         242861.86         2027826.7         34.027122         2.0975117       -0.78826701        0.12600203E-01
  -2.10000    -1863.4441         2.2910492         14.368929         1.3795596         236658.46         2027719.7         34.067376         2.1001039        0.47247148        0.45264643E-02
  -2.09000    -1858.8675         2.4410101         14.392583         1.3647768         230586.84         2026184.7         34.096015         2.1034617         1.7246221        0.60265243E-01
  -2.08000    -1853.9931         2.5988422         14.417776         1.3506027         224660.32         2023234.2         34.113400         2.1076033         2.9676239        0.17818201    
  -2.07000    -1848.8059         2.7644682         14.444586         1.3369888         218889.35         2018881.5         34.120177         2.1125668         4.2009803        0.35629696    
  -2.06000    -1843.2907         2.9377676         14.473091         1.3238867         213281.25         2013140.2         34.117310         2.1184137         5.4241381        0.59229148    
  -2.05000    -1837.4329         3.1185902         14.503366         1.3112503         207840.25         2006023.4         34.106119         2.1252319         6.6363276        0.88346965    
  -2.04000    -1831.2181         3.3067711         14.535487         1.2990366         202567.54         1997544.2         34.088301         2.1331380         7.8363621         1.2266634    
  -2.03000    -1824.6322         3.5021477         14.569526         1.2872073         197461.60         1987715.6         34.065937         2.1422794         9.0223990         1.6180737    
  -2.02000    -1817.6614         3.7045729         14.605553         1.2757293         192518.61         1976551.8         34.041484         2.1528328         10.191676         2.0530495    
  -2.01000    -1810.2923         3.9139258         14.643640         1.2645759         187733.03         1964069.8         34.017728         2.1650025         11.340243         2.5258156    
  -2.00000    -1802.5115         4.1301136         14.683855         1.2537273         183098.29         1950292.2         33.997719         2.1790144         12.462713         3.0291787    
  -1.99000    -1794.3058         4.3530657         14.726265         1.2431701         178607.58         1935249.6         33.984680         2.1951096         13.552066         3.5542501    
  -1.98000    -1785.6623         4.5827163         14.770938         1.2328978         174254.53         1918983.8         33.981893         2.2135344         14.599510         4.0902315    
  -1.97000    -1776.5681         4.8189761         14.817941         1.2229092         170033.99         1901550.9         33.992583         2.2345302         15.594433         4.6243120    
  -1.96000    -1767.0104         5.0616935         14.867339         1.2132081         165942.63         1883024.1         34.019795         2.2583218         16.524419         5.1417185    
  -1.95000    -1756.9771         5.3106074         14.919196         1.2038016         161979.40         1863495.5         34.066272         2.2851056         17.375358         5.6259501    
  -1.94000    -1746.4565         5.5652938         14.973571         1.1946985         158145.82         1843077.9         34.134342         2.3150365         18.131611         6.0592167    
  -1.93000    -1735.4380         5.8251132         15.030519         1.1859079         154446.09         1821905.6         34.225812         2.3482153         18.776256         6.4230877    
  -1.92000    -1723.9126         6.0891608         15.090087         1.1774378         150886.96         1800134.1         34.341860         2.3846737         19.291398         6.6993437    
  -1.91000    -1711.8731         6.3562273         15.152312         1.1692934         147477.50         1777940.2         34.482942         2.4243604         19.658561         6.8710098    
  -1.90000    -1699.3152         6.6247766         15.217217         1.1614766         144228.63         1755519.9         34.648699         2.4671252         19.859161         6.9235293    
  -1.89000    -1686.2378         6.8929432         15.284807         1.1539848         141152.60         1733087.1         34.837883         2.5127042         19.875076         6.8460177    
  -1.88000    -1672.6436         7.1585560         15.355067         1.1468110         138262.39         1710870.7         35.048295         2.5607060         19.689308         6.6325129    
  -1.87000    -1658.5399         7.4191877         15.427961         1.1399437         135571.03         1689111.5         35.276757         2.6106001         19.286722         6.2831169    
  -1.86000    -1643.9388         7.6722315         15.503426         1.1333674         133091.10         1668058.3         35.519100         2.6617100         18.654865         5.8049093    
  -1.85000    -1628.8577         7.9149997         15.581371         1.1270631         130834.09         1647964.8         35.770207         2.7132108         17.784826         5.2125134    
  -1.84000    -1613.3189         8.1448392         15.661682         1.1210092         128810.03         1629084.2         36.024079         2.7641357         16.672124         4.5281978    
  -1.83000    -1597.3499         8.3592550         15.744217         1.1151825         127027.06         1611666.0         36.273968         2.8133907         15.317571         3.7814195    
  -1.82000    -1580.9829         8.5560329         15.828809         1.1095592         125491.22         1595950.6         36.512547         2.8597805         13.728099         3.0077397    
  -1.81000    -1564.2536         8.7333505         15.915273         1.1041154         124206.20         1582165.2         36.732158         2.9020483         11.917456         2.2470820    
  -1.80000    -1547.2013         8.8898681         16.003406         1.0988285         123173.20         1570518.2         36.925120         2.9389281         9.9067246         1.5413567    
  -1.79000    -1529.8669         9.0247923         16.092998         1.0936776         122390.85         1561194.3         37.084122         2.9692109         7.7245479        0.93154344    
  -1.78000    -1512.2926         9.1379059         16.183829         1.0886440         121855.05         1554348.2         37.202660         2.9918216         5.4069608        0.45441720    
  -1.77000    -1494.5202         9.2295633         16.275684         1.0837121         121558.94         1550098.2         37.275535         3.0059011         2.9967272        0.13920462    
  -1.76000    -1476.5907         9.3006512         16.368352         1.0788694         121492.86         1548520.0         37.299336         3.0108859        0.54210934        0.45508297E-02
  -1.75000    -1458.5424         9.3525191         16.461633         1.0741071         121644.31         1549640.5         37.272885         3.0065751        -1.9049416        0.56233393E-01
  -1.74000    -1440.4110         9.3868854         16.555344         1.0694201         121998.04         1553432.6         37.197572         2.9931756        -4.2911077        0.28604295    
  -1.73000    -1422.2284         9.4057273         16.649319         1.0648068         122536.25         1559811.4         37.077531         2.9713153        -6.5643877        0.67214121    
  -1.72000    -1404.0227         9.4111654         16.743414         1.0602694         123238.85         1568632.9         36.919612         2.9420214        -8.6769139         1.1810054    
  -1.71000    -1385.8177         9.4053503         16.837505         1.0558133         124083.92         1579695.5         36.733146         2.9066636        -10.587635         1.7708073    
  -1.70000    -1367.6332         9.3903619         16.931490         1.0514467         125048.25         1592744.4         36.529501         2.8668679        -12.264595         2.3958106    
  -1.69000    -1349.4850         9.3681258         17.025288         1.0471798         126107.98         1607479.9         36.321476         2.8244114        -13.686582         3.0111719    
  -1.68000    -1331.3854         9.3403515         17.118835         1.0430248         127239.37         1623568.5         36.122597         2.7811112        -14.844017         3.5774495    
  -1.67000    -1313.3437         9.3084940         17.212082         1.0389946         128419.55         1640656.8         35.946373         2.7387181        -15.739028         4.0641860    
  -1.66000    -1295.3666         9.2737367         17.304995         1.0351022         129627.22         1658387.1         35.805593         2.6988265        -16.384771         4.4521180    
  -1.65000    -1277.4589         9.2369928         17.397550         1.0313608         130843.37         1676413.9         35.711699         2.6628044        -16.804121         4.7338324    
  -1.64000    -1259.6236         9.1989218         17.489730         1.0277824         132051.83         1694420.2         35.674293         2.6317479        -17.027904         4.9129630    
  -1.63000    -1241.8628         9.1599566         17.581525         1.0243780         133239.65         1712131.9         35.700782         2.6064567        -17.092836         5.0022509    
  -1.62000    -1224.1781         9.1203367         17.672927         1.0211575         134397.43         1729330.5         35.796168         2.5874297        -17.039353         5.0209301    
  -1.61000    -1206.5707         9.0801459         17.763930         1.0181289         135519.33         1745861.2         35.962990         2.5748746        -16.909448         4.9919309    
  -1.60000    -1189.0415         9.0393505         17.854528         1.0152991         136603.05         1761638.5         36.201385         2.5687297        -16.744641         4.9393350    
  -1.59000    -1171.5920         8.9978372         17.944715         1.0126733         137649.49         1776645.9         36.509274         2.5686937        -16.584152         4.8863821    
  -1.58000    -1154.2236         8.9554494         18.034482         1.0102556         138662.39         1790933.3         36.882638         2.5742610        -16.463343         4.8541755    
  -1.57000    -1136.9382         8.9120217         18.123820         1.0080487         139647.73         1804608.9         37.315890         2.5847629        -16.412490         4.8610718    
  -1.56000    -1119.7380         8.8674109         18.212718         1.0060544         140613.16         1817829.8         37.802296         2.5994112        -16.455910         4.9226283    
  -1.55000    -1102.6253         8.8215251         18.301164         1.0042736         141567.21         1830789.1         38.334442         2.6173441        -16.611493         5.0519107    
  -1.54000    -1085.6026         8.7743485         18.389145         1.0027067         142518.66         1843703.7         38.904699         2.6376729        -16.890618         5.2599575    
  -1.53000    -1068.6724         8.7259608         18.476647         1.0013533         143475.81         1856801.0         39.505669         2.6595249        -17.298468         5.5562353    
  -1.52000    -1051.8368         8.6765516         18.563660         1.0002125         144445.92         1870307.8         40.130566         2.6820830        -17.834663         5.9489854    
  -1.51000    -1035.0976         8.6264239         18.650176        0.99928339         145434.77         1884441.0         40.773518         2.7046163        -18.494168         6.4454336    
  -1.50000    -1018.4558         8.5759872         18.736188        0.99856419         146446.41         1899400.5         41.429757         2.7265023        -19.268352         7.0518923    
  -1.49000    -1001.9114         8.5257356         18.821696        0.99805296         147483.07         1915365.4         42.095714         2.7472378        -20.146113         7.7738141    
  -1.48000    -985.46368         8.4762117         18.906705        0.99774723         148545.42         1932492.3         42.768988         2.7664398        -21.114967         8.6158587    
  -1.47000    -969.11062         8.4279549         18.991225        0.99764396         149632.96         1950915.5         43.448241         2.7838367        -22.162015         9.5820177    
  -1.46000    -952.84931         8.3814394         19.075270        0.99773950         150744.69         1970750.0         44.133006         2.7992520        -23.274732         10.675812    
  -1.45000    -936.67603         8.3370059         19.158860        0.99802946         151879.88         1992094.6         44.823454         2.8125832        -24.441531         11.900543    
  -1.44000    -920.58657         8.2947953         19.242017        0.99850875         153038.91         2015036.6         45.520125         2.8237777        -25.652110         13.259560    
  -1.43000    -904.57670         8.2546922         19.324763        0.99917156         154224.14         2039656.9         46.223662         2.8328086        -26.897560         14.756484    
  -1.42000    -888.64269         8.2162845         19.407117         1.0000116         155440.57         2066034.3         46.934556         2.8396525        -28.170282         16.395321    
  -1.41000    -872.78192         8.1788468         19.489092         1.0010221         156696.37         2094250.1         47.652922         2.8442712        -29.463726         18.180419    
  -1.40000    -856.99345         8.1413483         19.570694         1.0021963         158003.12         2124392.0         48.378322         2.8465980        -30.772005         20.116214    
  -1.39000    -841.27862         8.1024868         19.651915         1.0035279         159375.79         2156556.7         49.109646         2.8465311        -32.089421         22.206731    
  -1.38000    -825.64151         8.0607449         19.732734         1.0050109         160832.51         2190851.3         49.845050         2.8439317        -33.409964         24.454844    
  -1.37000    -810.08927         8.0144641         19.813114         1.0066406         162394.07         2227394.1         50.581972         2.8386294        -34.726809         26.861287    
  -1.36000    -794.63236         7.9619301         19.893002         1.0084136         164083.32         2266313.5         51.317204         2.8304339        -36.031873         29.423455    
  -1.35000    -779.28450         7.9014632         19.972327         1.0103284         165924.48         2307745.2         52.047042         2.8191501        -37.315463         32.134056    
  -1.34000    -764.06258         7.8315083         20.051000         1.0123852         167942.40         2351828.8         52.767495         2.8045991        -38.566047         34.979690    
  -1.33000    -748.98629         7.7507180         20.128921         1.0145868         170161.82         2398701.9         53.474550         2.7866400        -39.770187         37.939496    
  -1.32000    -734.07769         7.6580267         20.205975         1.0169386         172606.59         2448493.8         54.164480         2.7651939        -40.912657         40.984003    
  -1.31000    -719.36055         7.5527114         20.282039         1.0194486         175298.93         2501317.1         54.834180         2.7402653        -41.976756         44.074409    
  -1.30000    -704.85970         7.4344377         20.356986         1.0221280         178258.63         2557259.4         55.481489         2.7119604        -42.944826         47.162461    
  -1.29000    -690.60019         7.3032892         20.430685         1.0249910         181502.25         2616373.7         56.105487         2.6804985        -43.798944         50.191138    
  -1.28000    -676.60650         7.1597789         20.503010         1.0280552         185042.28         2678670.0         56.706710         2.6462157        -44.521758         53.096246    
  -1.27000    -662.90172         7.0048404         20.573842         1.0313415         188886.29         2744107.4         57.287271         2.6095585        -45.097382         55.808940    
  -1.26000    -649.50674         6.8398005         20.643073         1.0348740         193036.11         2812588.2         57.850848         2.5710682        -45.512288         58.259061    
  -1.25000    -636.43953         6.6663311         20.710610         1.0386797         197487.03         2883954.7         58.402543         2.5313566        -45.756080         60.379020    
  -1.24000    -623.71455         6.4863835         20.776378         1.0427885         202227.20         2957988.6         58.948610         2.4910766        -45.822105         62.107862    
  -1.23000    -611.34228         6.3021094         20.840323         1.0472319         207237.14         3034414.3         59.496095         2.4508887        -45.707807         63.395096    
  -1.22000    -599.32892         6.1157713         20.902414         1.0520430         212489.57         3112904.2         60.052397         2.4114297        -45.414827         64.203853    
  -1.21000    -587.67624         5.9296517         20.962640         1.0572551         217949.46         3193087.8         60.624821         2.3732835        -44.948835         64.513074    
  -1.20000    -576.38166         5.7459657         21.021015         1.0629006         223574.50         3274561.9         61.220140         2.3369592        -44.319142         64.318497    
  -1.19000    -565.43845         5.5667839         21.077574         1.0690104         229315.88         3356903.4         61.844215         2.3028744        -43.538134         63.632422    
  -1.18000    -554.83604         5.3939713         21.132372         1.0756121         235119.36         3439681.3         62.501681         2.2713471        -42.620593         62.482326    
  -1.17000    -544.56050         5.2291442         21.185480         1.0827296         240926.66         3522469.5         63.195730         2.2425932        -41.582974         60.908560    
  -1.16000    -534.59505         5.0736465         21.236986         1.0903814         246677.06         3604858.4         63.927972         2.2167297        -40.442669         58.961404    
  -1.15000    -524.92055         4.9285440         21.286988         1.0985804         252309.04         3686464.5         64.698393         2.1937819        -39.217330         56.697786    
  -1.14000    -515.51608         4.7946328         21.335594         1.1073331         257762.05         3766939.4         65.505384         2.1736938        -37.924258         54.177982    
  -1.13000    -506.35942         4.6724605         21.382919         1.1166390         262978.13         3845974.9         66.345829         2.1563398        -36.579888         51.462536    
  -1.12000    -497.42751         4.5623530         21.429083         1.1264906         267903.41         3923307.1         67.215251         2.1415368        -35.199369         48.609602    
  -1.11000    -488.69684         4.4644443         21.474207         1.1368734         272489.51         3998717.7         68.107984         2.1290570        -33.796252         45.672820    
  -1.10000    -480.14381         4.3787072         21.518413         1.1477661         276694.59         4072033.5         69.017377         2.1186398        -32.382262         42.699787    
  -1.09000    -471.74502         4.3049794         21.561821         1.1591409         280484.28         4143123.2         69.936008         2.1100027        -30.967166         39.731116    
  -1.08000    -463.47748         4.2429860         21.604551         1.1709641         283832.36         4211893.9         70.855904         2.1028517        -29.558704         36.800033    
  -1.07000    -455.31882         4.1923572         21.646719         1.1831973         286721.15         4278284.8         71.768763         2.0968906        -28.162600         33.932449    
  -1.06000    -447.24748         4.1526399         21.688435         1.1957980         289141.71         4342261.4         72.666168         2.0918296        -26.782620         31.147420    
  -1.05000    -439.24285         4.1233062         21.729806         1.2087211         291093.80         4403808.0         73.539793         2.0873921        -25.420681         28.457893    
  -1.04000    -431.28541         4.1037585         21.770934         1.2219207         292585.51         4462920.4         74.381588         2.0833216        -24.077010         25.871657    
  -1.03000    -423.35685         4.0933330         21.811912         1.2353513         293632.68         4519599.0         75.183947         2.0793865        -22.750319         23.392406    
  -1.02000    -415.44022         4.0913038         21.852828         1.2489695         294258.01         4573842.0         75.939851         2.0753846        -21.438020         21.020861    
  -1.01000    -407.52003         4.0968877         21.893763         1.2627357         294489.95         4625639.0         76.642988         2.0711460        -20.136444         18.755873    
  -1.00000    -399.58233         4.1092518         21.934789         1.2766154         294361.38         4674965.8         77.287847         2.0665351        -18.841080         16.595488    
  -0.99000    -391.61485         4.1275236         21.975968         1.2905799         293908.18         4721780.1         77.869777         2.0614518        -17.546813         14.537920    
  -0.98000    -383.60702         4.1508032         22.017356         1.3046067         293167.78         4766018.4         78.385024         2.0558310        -16.248161         12.582419    
  -0.97000    -375.55005         4.1781778         22.058998         1.3186798         292177.75         4807593.7         78.830734         2.0496411        -14.939504         10.730009    
  -0.96000    -367.43688         4.2087356         22.100930         1.3327888         290974.60         4846395.5         79.204917         2.0428821        -13.615291         8.9840615    
  -0.95000    -359.26223         4.2415791         22.143180         1.3469281         289592.85         4882289.6         79.506397         2.0355818        -12.270231         7.3507056    
  -0.94000    -351.02254         4.2758351         22.185766         1.3610956         288064.36         4915120.5         79.734731         2.0277919        -10.899440         5.8390551    
  -0.93000    -342.71588         4.3106602         22.228699         1.3752917         286418.06         4944713.7         79.890114         2.0195839        -9.4985632         4.4612544    
  -0.92000    -334.34195         4.3452413         22.271979         1.3895175         284679.92         4970879.7         79.973282         2.0110445        -8.0638549         3.2323521    
  -0.91000    -325.90198         4.3787908         22.315600         1.4037743         282873.30         4993417.5         79.985411         2.0022713        -6.5922349         2.1700175    
  -0.90000    -317.39872         4.4105378         22.359549         1.4180624         281019.36         5012119.0         79.928030         1.9933692        -5.0813140         1.2941167    
  -0.89000    -308.83639         4.4397167         22.403802         1.4323812         279137.71         5026774.2         79.802935         1.9844470        -3.5294042        0.62616988    
  -0.88000    -300.22072         4.4655552         22.448332         1.4467292         277246.96         5037175.3         79.612109         1.9756139        -1.9355154        0.18870366    
  -0.87000    -291.55891         4.4872658         22.493100         1.4611048         275365.28         5043122.1         79.357652         1.9669773       -0.29934171        0.45189126E-02
  -0.86000    -282.85975         4.5040419         22.538061         1.4755070         273510.79         5044426.7         79.041704         1.9586394         1.3787632        0.95893947E-01
  -0.85000    -274.13356         4.5150611         22.583161         1.4899371         271701.76         5040918.8         78.666372         1.9506953         3.0978234        0.48375228    
  -0.84000    -265.39228         4.5194981         22.628340         1.5043998         269956.58         5032449.9         78.233658         1.9432299         4.8562935         1.1868322    
  -0.83000    -256.64944         4.5165465         22.673527         1.5189048         268293.56         5018898.6         77.745391         1.9363160         6.6521266         2.2209022    
  -0.82000    -247.92008         4.5054485         22.718644         1.5334680         266730.53         5000173.8         77.203167         1.9300121         8.4828590         3.5980699    
  -0.81000    -239.22062         4.4855320         22.763606         1.5481125         265284.24         4976217.8         76.608305         1.9243607         10.345706         5.3262263    
  -0.80000    -230.56868         4.4562498         22.808323         1.5628693         263969.71         4947008.9         75.961802         1.9193871         12.237668         7.4086665    
  -0.79000    -221.98278         4.4172191         22.852699         1.5777778         262799.59         4912562.3         75.264313         1.9150982         14.155652         9.8439141    
  -0.78000    -213.48200         4.3682547         22.896634         1.5928849         261783.48         4872930.8         74.516136         1.9114815         16.096590         12.625774    
  -0.77000    -205.08555         4.3093941         22.940031         1.6082451         260927.38         4828203.2         73.717209         1.9085052         18.057584         15.743628    
  -0.76000    -196.81236         4.2409089         22.982790         1.6239191         260233.32         4778503.1         72.867132         1.9061182         20.036042         19.182965    
  -0.75000    -188.68060         4.1633022         23.024818         1.6399725         259699.05         4723985.1         71.965210         1.9042505         22.029833         22.926140    
  -0.74000    -180.70726         4.0772915         23.066028         1.6564740         259318.07         4664831.0         71.010514         1.9028158         24.037426         26.953293    
  -0.73000    -172.90775         3.9837774         23.106339         1.6734936         259079.69         4601244.3         70.001977         1.9017132         26.058016         31.243379    
  -0.72000    -165.29560         3.8838029         23.145682         1.6911009         258969.38         4533444.5         68.938500         1.9008312         28.091631         35.775212    
  -0.71000    -157.88222         3.7785051         23.183998         1.7093630         258969.21         4461661.2         67.819072         1.9000511         30.139192         40.528430    
  -0.70000    -150.67677         3.6690656         23.221238         1.7283424         259058.40         4386128.6         66.642882         1.8992513         32.202549         45.484337    
  -0.69000    -143.68613         3.5566628         23.257369         1.7480959         259214.02         4307080.3         65.409424         1.8983110         34.284483         50.626532    
  -0.68000    -136.91491         3.4424285         23.292366         1.7686728         259411.67         4224745.2         64.118580         1.8971138         36.388672         55.941350    
  -0.67000    -130.36563         3.3274129         23.326215         1.7901136         259626.21         4139343.9         62.770692         1.8955507         38.519648         61.418067    
  -0.66000    -124.03888         3.2125582         23.358914         1.8124491         259832.43         4051086.8         61.366605         1.8935229         40.682731         67.048914    
  -0.65000    -117.93352         3.0986812         23.390469         1.8357000         260005.74         3960172.4         59.907696         1.8909434         42.883951         72.828888    
  -0.64000    -112.04699         2.9864643         23.420894         1.8598764         260122.74         3866786.6         58.395889         1.8877396         45.129970         78.755393    
  -0.63000    -106.37552         2.8764545         23.450206         1.8849777         260161.68         3771103.9         56.833646         1.8838531         47.427985         84.827730    
  -0.62000    -100.91442         2.7690684         23.478431         1.9109935         260102.91         3673287.5         55.223943         1.8792411         49.785641         91.046472    
  -0.61000    -95.658306         2.6646016         23.505597         1.9379032         259929.13         3573492.1         53.570232         1.8738754         52.210946         97.412782    
  -0.60000    -90.601335         2.5632413         23.531734         1.9656778         259625.58         3471865.6         51.876388         1.8677418         54.712202         103.92770    
  -0.59000    -85.737391         2.4650810         23.556873         1.9942800         259180.14         3368552.0         50.146654         1.8608387         57.297954         110.59143    
  -0.58000    -81.060258         2.3701351         23.581046         2.0236652         258583.36         3263693.9         48.385579         1.8531755         59.976953         117.40273    
  -0.57000    -76.563754         2.2783537         23.604286         2.0537827         257828.35         3157435.0         46.597967         1.8447714         62.758140         124.35823    
  -0.56000    -72.241847         2.1896366         23.626623         2.0845761         256910.70         3049922.9         44.788829         1.8356541         65.650639         131.45187    
  -0.55000    -68.088737         2.1038451         23.648088         2.1159841         255828.31         2941310.8         42.963338         1.8258585         68.663759         138.67432    
  -0.54000    -64.098921         2.0208134         23.668710         2.1479411         254581.21         2831759.8         41.126797         1.8154257         71.806988         146.01243    
  -0.53000    -60.267233         1.9403578         23.688513         2.1803775         253171.40         2721441.2         39.284596         1.8044022         75.090005         153.44871    
  -0.52000    -56.588877         1.8622849         23.707525         2.2132200         251602.64         2610537.5         37.442188         1.7928390         78.522684         160.96083    
  -0.51000    -53.059431         1.7863975         23.725766         2.2463918         249880.30         2499243.9         35.605050         1.7807911         82.115093         168.52123    
  -0.50000    -49.674858         1.7125009         23.743259         2.2798123         248011.21         2387769.7         33.778663         1.7683166         85.877503         176.09671    
  -0.49000    -46.431488         1.6404068         23.760022         2.3133978         246003.53         2276338.5         31.968476         1.7554768         89.820376         183.64816    
  -0.48000    -43.326009         1.5699369         23.776073         2.3470606         243866.63         2165188.8         30.179888         1.7423358         93.954352         191.13032    
  -0.47000    -40.355439         1.5009268         23.791426         2.3807099         241610.99         2054574.0         28.418214         1.7289603         98.290211         198.49169    
  -0.46000    -37.517101         1.4332279         23.806096         2.4142509         239248.15         1944761.4         26.688660         1.7154200         102.83883         205.67455    
  -0.45000    -34.808586         1.3667104         23.820094         2.4475860         236790.59         1836031.8         24.996287         1.7017875         107.61109         212.61519    
  -0.44000    -32.227718         1.3012657         23.833433         2.4806143         234251.70         1728677.6         23.345975         1.6881383         112.61784         219.24433    
  -0.43000    -29.772506         1.2368083         23.846123         2.5132325         231645.69         1623000.8         21.742383         1.6745511         117.86970         225.48782    
  -0.42000    -27.441104         1.1732778         23.858173         2.5453357         228987.48         1519310.3         20.189907         1.6611079         123.37699         231.26764    
  -0.41000    -25.231755         1.1106413         23.869592         2.5768178         226292.65         1417918.2         18.692634         1.6478943         129.14957         236.50325    
  -0.40000    -23.142737         1.0488943         23.880389         2.6075735         223577.27         1319135.7         17.254299         1.6350003         135.19660         241.11322    
  -0.39000    -21.172311        0.98806184         23.890573         2.6374989         220857.75         1223268.5         15.878233         1.6225212         141.52639         245.01724    
  -0.38000    -19.318658        0.92819937         23.900153         2.6664939         218150.64         1130611.3         14.567327         1.6105587         148.14612         248.13836    
  -0.37000    -17.579824        0.86939170         23.909140         2.6944632         215472.44         1041442.0         13.323985         1.5992230         155.06166         250.40556    
  -0.36000    -15.953663        0.81175159         23.917545         2.7213190         212839.29         956015.96         12.150090         1.5886359         162.27725         251.75634    
  -0.35000    -14.437787        0.75541681         23.925379         2.7469825         210266.74         874559.59         11.046979         1.5789345         169.79529         252.13939    
  -0.34000    -13.029520        0.70054578         23.932658         2.7713858         207769.42         797265.14         10.015421         1.5702776         177.61610         251.51705    
  -0.33000    -11.725864        0.64731190         23.939396         2.7944739         205360.79         724285.48         9.0556161         1.5628534         185.73765         249.86743    
  -0.32000    -10.523476        0.59589662         23.945610         2.8162059         203052.78         655730.12         8.1672027         1.5568910         194.15538         247.18606    
  -0.31000    -9.4186617        0.54648161         23.951320         2.8365562         200855.66         591662.42         7.3492798         1.5526759         202.86201         243.48681    
  -0.30000    -8.4073806        0.49924051         23.956547         2.8555150         198777.74         532098.36         6.6004475         1.5505703         211.84734         238.80200    
  -0.29000    -7.4852711        0.45433078         23.961313         2.8730886         196825.32         477006.78         5.9188594         1.5510418         221.09811         233.18177    
  -0.28000    -6.6476885        0.41188634         23.965642         2.8892991         195002.61         426311.39         5.3022899         1.5546998         230.59774         226.69243    
  -0.27000    -5.8897568        0.37201143         23.969559         2.9041832         193311.80         379894.24         4.7482105         1.5623462         240.32613         219.41418    
  -0.26000    -5.2064309        0.33477622         23.973091         2.9177916         191753.11         337600.46         4.2538750         1.5750404         250.25926         211.43814    
  -0.25000    -4.5925647        0.30021449         23.976264         2.9301871         190325.04         299244.03         3.8164085         1.5941874         260.36865         202.86301    
  -0.24000    -4.0429825        0.26832329         23.979104         2.9414436         189024.61         264614.16         3.4328965         1.6216520         270.62052         193.79142    
  -0.23000    -3.5525487        0.23906458         23.981639         2.9516444         187847.63         233481.91         3.1004723         1.6599104         280.97467         184.32641    
  -0.22000    -3.1162327        0.21236844         23.983894         2.9608813         186789.06         205606.72         2.8163977         1.7122481         291.38273         174.56811    
  -0.21000    -2.7291666        0.18813756         23.985895         2.9692539         185843.34         180742.50         2.5781359         1.7830173         301.78585         164.61069    
  -0.20000    -2.3866929        0.16625237         23.987665         2.9768696         185004.77         158643.12         2.3834152         1.8779693         312.11152         154.53998    
  -0.19000    -2.0844028        0.14657656         23.989227         2.9838446         184267.88         139067.06         2.2302789         2.0046793         322.26926         144.43154    
  -0.18000    -1.8181629        0.12896248         23.990603         2.9903058         183627.81         121781.26         2.1171230         2.1730796         332.14490         134.34937    
  -0.17000    -1.5841326        0.11325612         23.991813         2.9963940         183080.71         106564.05         2.0427160         2.3961131         341.59326         124.34527    
  -0.16000    -1.3787716        0.99301525E-01     23.992874         3.0022689         182624.19         93207.273         2.0061989         2.6905074         350.42867         114.45877    
  -0.15000    -1.1988401        0.86944524E-01     23.993804         3.0081160         182257.81         81517.737         2.0070569         3.0776383         358.41323         104.71772    
  -0.14000    -1.0413928        0.76035645E-01     23.994618         3.0141565         181983.71         71317.938         2.0450550         3.5843981         365.24250         95.139616    
  -0.13000   -0.90376687        0.66432368E-01     23.995329         3.0206590         181807.26         62446.343         2.1201213         4.2438861         370.52900         85.733671    
  -0.12000   -0.78356732        0.58000702E-01     23.995950         3.0279571         181738.01         54757.243         2.2321593         5.0955801         373.78431         76.503923    
  -0.11000   -0.67864928        0.50616178E-01     23.996492         3.0364700         181790.76         48120.312         2.3807658         6.1844097         374.40210         67.453575    
  -0.10000   -0.58709904        0.44164388E-01     23.996966         3.0467295         181986.88         42419.956         2.5648272         7.5578437         371.64625         58.590841    
  -0.09000   -0.50721438        0.38541132E-01     23.997379         3.0594135         182355.95         37554.542         2.7819777         9.2597911         364.65139         49.936513    
  -0.08000   -0.43748488        0.33652284E-01     23.997739         3.0753859         182937.58         33435.552         3.0279237         11.320000         352.44646         41.533144    
  -0.07000   -0.37657276        0.29413449E-01     23.998054         3.0957421         183783.34         29986.730         3.2956908         13.738122         334.01559         33.455120    
  -0.06000   -0.32329453        0.25749476E-01     23.998329         3.1218589         184958.63         27143.248         3.5749377         16.463292         308.41040         25.817837    
  -0.05000   -0.27660358        0.22593885E-01     23.998570         3.1554394         186543.86         24850.931         3.8515901         19.373470         274.92135         18.782768    
  -0.04000   -0.23557404        0.19888251E-01     23.998782         3.1985438         188634.21         23065.551         4.1081487         22.263444         233.29734         12.554037    
  -0.03000   -0.19938583        0.17581573E-01     23.998969         3.2535847         191336.99         21752.208         4.3250132         24.853874         183.97209         7.3621934    
  -0.02000   -0.16731083        0.15629655E-01     23.999135         3.3232567         194764.89         20884.810         4.4829443         26.831368         128.22249         3.4336729    
  -0.01000   -0.13870034        0.13994515E-01     23.999283         3.4103637         199024.09         20445.644         4.5663267         27.917478         68.171085        0.95016979    
   0.00000   -0.11297359        0.12643833E-01     23.999416         3.5175055         204196.60         20425.056         4.5663594         27.945820         6.5766323        0.88342638E-02
   0.01000   -0.89607283E-01    0.11550439E-01     23.999537         3.6466042         210318.00         20821.215         4.4830476         26.913941        -53.563657        0.59737425    
   0.02000   -0.68126079E-01    0.10691850E-01     23.999648         3.7983028         217354.81         21639.979         4.3251924         24.983807        -109.48779         2.5941089    
   0.03000   -0.48093955E-01    0.10049847E-01     23.999751         3.9713488         225188.09         22894.832         4.1083834         22.430735        -159.06707         5.7929268    
   0.04000   -0.29106315E-01    0.96100992E-02     23.999850         4.1621631         233611.27         24606.897         3.8518013         19.566675        -201.01630         9.9430446    
   0.05000   -0.10782811E-01    0.93618180E-02     23.999944         4.3648278         242347.45         26804.998         3.5749578         16.671135        -234.89238         14.789506    
   0.06000    0.72391960E-02    0.92974390E-02     24.000037         4.5716450         251085.35         29525.761         3.2952393         13.950696        -260.93730         20.103581    
   0.07000    0.25310592E-01    0.94123272E-02     24.000131         4.7742052         259525.15         32813.720         3.0265868         11.529426        -279.85281         25.698917    
   0.08000    0.43775898E-01    0.97044901E-02     24.000226         4.9646725         267421.21         36721.411         2.7791890         9.4603834        -292.58171         31.435018    
   0.09000    0.62978103E-01    0.10174292E-01     24.000325         5.1368841         274609.64         41309.400         2.5598415         7.7459415        -300.13677         37.212367    
   0.10000    0.83262949E-01    0.10824158E-01     24.000430         5.2869562         281015.74         46646.227         2.3726246         6.3580292        -303.48837         42.963597    
   0.11000    0.10498261        0.11658259E-01     24.000543         5.4133203         286643.82         52808.196         2.2196419         5.2540186        -303.50343         48.643916    
   0.12000    0.12849874        0.12682170E-01     24.000664         5.5163249         291556.74         59878.981         2.1016817         4.3873527        -300.92129         54.222588    
   0.13000    0.15418484        0.13902493E-01     24.000797         5.5976356         295852.88         67948.984         2.0187406         3.7137064        -296.35281         59.676188    
   0.14000    0.18242786        0.15326450E-01     24.000943         5.6596344         299646.20         77114.402         1.9704085         3.1939698        -290.29172         64.983752    
   0.15000    0.21362896        0.16961441E-01     24.001104         5.7049411         303051.55         87475.957         1.9561298         2.7952393        -283.13120         70.123592    
   0.16000    0.24820342        0.18814586E-01     24.001283         5.7360894         306175.54         99137.273         1.9753692         2.4906995        -275.18138         75.071492    
   0.17000    0.28657967        0.20892262E-01     24.001481         5.7553459         309111.76         112202.88         2.0277057         2.2589723        -266.68549         79.799982    
   0.18000    0.32919738        0.23199657E-01     24.001701         5.7646339         311939.05         126775.89         2.1128753         2.0832779        -257.83384         84.278441    
   0.19000    0.37650477        0.25740377E-01     24.001946         5.7655245         314721.58         142955.34         2.2307787         1.9505905        -248.77525         88.473810    
   0.20000    0.42895527        0.28516122E-01     24.002217         5.7592660         317509.82         160833.40         2.3814648         1.8508786        -239.62626         92.351738    
   0.21000    0.48700357        0.31526480E-01     24.002517         5.7468304         320341.99         180492.43         2.5650995         1.7764591        -230.47827         95.878003    
   0.22000    0.55110141        0.34768829E-01     24.002848         5.7289633         323245.47         202002.16         2.7819246         1.7214695        -221.40304         99.020063    
   0.23000    0.62169338        0.38238399E-01     24.003213         5.7062327         326238.25         225417.05         3.0322136         1.6814465        -212.45690         101.74860    
   0.24000    0.69921290        0.41928456E-01     24.003614         5.6790713         329330.18         250774.04         3.3162267         1.6529954        -203.68387         104.03892    
   0.25000    0.78407869        0.45830621E-01     24.004052         5.6478121         332524.14         278090.87         3.6341679         1.6335344        -195.11807         105.87215    
   0.26000    0.87669202        0.49935287E-01     24.004531         5.6127175         335817.11         307364.96         3.9861487         1.6210976        -186.78553         107.23605    
   0.27000    0.97743475        0.54232096E-01     24.005052         5.5740019         339201.12         338573.00         4.3721581         1.6141859        -178.70554         108.12556    
   0.28000     1.0866684        0.58710453E-01     24.005616         5.5318494         342664.19         371671.15         4.7920417         1.6116538        -170.89178         108.54284    
   0.29000     1.2047341        0.63360011E-01     24.006227         5.4864266         346191.11         406595.89         5.2454899         1.6126239        -163.35321         108.49715    
   0.30000     1.3319537        0.68171121E-01     24.006884         5.4378923         349764.29         443265.33         5.7320337         1.6164229        -156.09487         108.00429    
   0.31000     1.4686312        0.73135197E-01     24.007591         5.3864029         353364.43         481580.90         6.2510462         1.6225327        -149.11857         107.08601    
   0.32000     1.6150553        0.78244999E-01     24.008347         5.3321166         356971.23         521429.38         6.8017456         1.6305529        -142.42357         105.76921    
   0.33000     1.7715023        0.83494829E-01     24.009156         5.2751945         360564.01         562685.16         7.3831963         1.6401704        -136.00713         104.08516    
   0.34000     1.9382388        0.88880659E-01     24.010018         5.2158011         364122.21         605212.82         7.9943049         1.6511351        -129.86503         102.06870    
   0.35000     2.1155256        0.94400201E-01     24.010934         5.1541034         367625.95         648869.95         8.6338104         1.6632398        -123.99198         99.757336    
   0.36000     2.3036205        0.10005297         24.011906         5.0902700         371056.28         693510.26         9.3002711         1.6763038        -118.38181         97.190288    
   0.37000     2.5027824        0.10584035         24.012935         5.0244704         374395.47         738986.77         9.9920553         1.6901614        -113.02762         94.407360    
   0.38000     2.7132746        0.11176560         24.014023         4.9568744         377627.07         785154.91         10.707346         1.7046550        -107.92170         91.447727    
   0.39000     2.9353686        0.11783400         24.015171         4.8876524         380735.78         831875.11         11.444168         1.7196343        -103.05544         88.348656    
   0.40000     3.1693480        0.12405278         24.016381         4.8169755         383707.36         879014.49         12.200445         1.7349608        -98.419221         85.144360    
   0.41000     3.4155124        0.13043115         24.017653         4.7450158         386528.31         926447.42         12.974089         1.7505161        -94.002448         81.865157    
   0.42000     3.6741811        0.13698021         24.018990         4.6719454         389185.65         974054.66         13.763105         1.7662131        -89.793694         78.537126    
   0.43000     3.9456963        0.14371280         24.020393         4.5979349         391666.70         1021721.6         14.565697         1.7820041        -85.781109         75.182352    
   0.44000     4.2304271        0.15064336         24.021865         4.5231511         393959.02         1069336.2         15.380358         1.7978861        -81.952988         71.819747    
   0.45000     4.5287715        0.15778783         24.023407         4.4477533         396050.40         1116786.8         16.205896         1.8138977        -78.298452         68.466264    
   0.46000     4.8411600        0.16516363         24.025021         4.3718903         397929.03         1163961.6         17.041404         1.8301080        -74.808103         65.138229    
   0.47000     5.1680586        0.17278991         24.026711         4.2956977         399583.70         1210750.1         17.886147         1.8465977        -71.474496         61.852420    
   0.48000     5.5099719        0.18068790         24.028478         4.2192967         401004.03         1257045.8         18.739393         1.8634357        -68.292308         58.626598    
   0.49000     5.8674483        0.18888153         24.030325         4.1427947         402180.64         1302752.0         19.600216         1.8806549        -65.258114         55.479278    
   0.50000     6.2410857        0.19739818         24.032257         4.0662876         403105.11         1347786.8         20.467313         1.8982335        -62.369766         52.428742    
   0.51000     6.6315389        0.20626951         24.034275         3.9898640         403769.85         1392088.4         21.338888         1.9160859        -59.625466         49.491474    
   0.52000     7.0395290        0.21553224         24.036383         3.9136097         404167.75         1435618.1         22.212651         1.9340669        -57.022689         46.680372    
   0.53000     7.4658531        0.22522879         24.038587         3.8376122         404291.59         1478359.7         23.085954         1.9519906        -54.557182         44.003171    
   0.54000     7.9113967        0.23540770         24.040889         3.7619641         404133.51         1520315.0         23.956061         1.9696626        -52.222260         41.461491    
   0.55000     8.3771451        0.24612392         24.043297         3.6867649         403684.39         1561496.1         24.820531         1.9869190        -50.008587         39.050814    
   0.56000     8.8641964        0.25743889         24.045814         3.6121200         402933.47         1601914.2         25.677635         2.0036681        -47.904572         36.761497    
   0.57000     9.3737736        0.26942063         24.048448         3.5381381         401868.15         1641568.7         26.526734         2.0199226        -45.897355         34.580747    
   0.58000     9.9072384        0.28214409         24.051205         3.4649280         400474.17         1680437.8         27.368528         2.0358182        -43.974271         32.495240    
   0.59000     10.466104        0.29569179         24.054093         3.3925937         398736.16         1718473.8         28.205099         2.0516097        -42.124539         30.493919    
   0.60000     11.052053        0.31015503         24.057122         3.3212320         396638.44         1755603.3         29.039710         2.0676446        -40.340858         28.570423    
   0.61000     11.666952        0.32563579         24.060300         3.2509309         394166.19         1791735.5         29.876361         2.0843172        -38.620587         26.724626    
   0.62000     12.312880        0.34224919         24.063638         3.1817710         391306.56         1826774.6         30.719173         2.1020090        -36.966232         24.962918    
   0.63000     12.992151        0.36012651         24.067149         3.1138290         388049.82         1860637.7         31.571691         2.1210263        -35.385094         23.297136    
   0.64000     13.707355        0.37941844         24.070845         3.0471827         384390.35         1893271.9         32.436241         2.1415467        -33.888062         21.742348    
   0.65000     14.461392        0.40029842         24.074743         2.9819174         380327.10         1924669.2         33.313465         2.1635838        -32.487722         20.313961    
   0.66000     15.257523        0.42296561         24.078857         2.9181303         375863.84         1954874.5         34.202163         2.1869794        -31.196081         19.024751    
   0.67000     16.099420        0.44764735         24.083209         2.8559339         371008.89         1983985.6         35.099486         2.2114252        -30.022286         17.882409    
   0.68000     16.991226        0.47460094         24.087818         2.7954559         365774.49         2012142.5         36.001500         2.2365153        -28.970773         16.888026    
   0.69000     17.937610        0.50411467         24.092709         2.7368362         360176.02         2039510.2         36.904045         2.2618203        -28.040235         16.035747    
   0.70000     18.943830        0.53650815         24.097910         2.6802208         354231.22         2066254.3         37.803757         2.2869739        -27.223675         15.313599    
   0.71000     20.015792        0.57213229         24.103450         2.6257539         347959.57         2092517.0         38.699073         2.3117538        -26.509631         14.705384    
   0.72000     21.160112        0.61136892         24.109364         2.5735691         341382.14         2118396.6         39.590994         2.3361415        -25.884469         14.193379    
   0.73000     22.384172        0.65463036         24.115691         2.5237813         334521.83         2143934.9         40.483430         2.3603463        -25.335374         13.761514    
   0.74000     23.696183        0.70235904         24.122472         2.4764807         327404.25         2169117.4         41.382997         2.3847831        -24.853530         13.398594    
   0.75000     25.105241        0.75502691         24.129755         2.4317287         320058.83         2193886.3         42.298221         2.4100053        -24.436885         13.101041    
   0.76000     26.621381        0.81313419         24.137591         2.3895573         312520.25         2218166.1         43.238242         2.4365985        -24.091924         12.874697    
   0.77000     28.255633        0.87720686         24.146037         2.3499701         304829.60         2241897.5         44.211183         2.4650537        -23.834035         12.735350    
   0.78000     30.020065        0.94779177         24.155156         2.3129445         297035.15         2265075.6         45.222449         2.4956369        -23.686274         12.707971    
   0.79000     31.927817         1.0254483         24.165017         2.2784348         289192.32         2287783.4         46.273229         2.5282785        -23.676611         12.824900    
   0.80000     33.993114         1.1107357         24.175691         2.2463752         281362.82         2310217.0         47.359474         2.5625014        -23.833990         13.123397    
   0.81000     36.231248         1.2041948         24.187258         2.2166813         273612.80         2332694.5         48.471547         2.5974011        -24.183759         13.642862    
   0.82000     38.658521         1.3063245         24.199804         2.1892523         266010.31         2355649.4         49.594663         2.6316874        -24.743148         14.421836    
   0.83000     41.292138         1.4175527         24.213415         2.1639710         258622.30         2379606.1         50.710091         2.6637860        -25.517494         15.494626    
   0.84000     44.150035         1.5382027         24.228186         2.1407056         251511.52         2405142.9         51.796981         2.6919909        -26.497856         16.887382    
   0.85000     47.250645         1.6684584         24.244211         2.1193106         244733.83         2432847.6         52.834553         2.7146456        -27.660432         18.613705    
   0.86000     50.612591         1.8083277         24.261587         2.0996292         238336.17         2463272.6         53.804297         2.7303260        -28.967913         20.670305    
   0.87000     54.254318         1.9576108         24.280409         2.0814964         232355.35         2496894.2         54.691836         2.7379932        -30.372556         23.033653    
   0.88000     58.193658         2.1158737         24.300770         2.0647424         226817.82         2534084.4         55.488152         2.7370908        -31.820421         25.658598    
   0.89000     62.447365         2.2824308         24.322755         2.0491968         221740.19         2575093.5         56.190014         2.7275716        -33.256060         28.479646    
   0.90000     67.030616         2.4563401         24.346443         2.0346928         217130.35         2620047.5         56.799613         2.7098561        -34.626848         31.414858    
   0.91000     71.956522         2.6364102         24.371902         2.0210705         212988.90         2668956.2         57.323569         2.6847372        -35.886367         34.371654    
   0.92000     77.235666         2.8212227         24.399187         2.0081807         209310.63         2721728.7         57.771577         2.6532575        -36.996458         37.253332    
   0.93000     82.875692         3.0091666         24.428337         1.9958864         206085.94         2778192.7         58.154990         2.6165837        -37.927940         39.965098    
   0.94000     88.880978         3.1984844         24.459375         1.9840651         203301.90         2838113.4         58.485590         2.5759009        -38.660199         42.418755    
   0.95000     95.252404         3.3873271         24.492305         1.9726090         200943.08         2901208.3         58.774708         2.5323375        -39.180052         44.535766    
   0.96000     101.98723         3.5738134         24.527113         1.9614255         198992.13         2967157.6         59.032742         2.4869231        -39.480292         46.248892    
   0.97000     109.07910         3.7560912         24.563767         1.9504361         197430.06         3035608.4         59.269042         2.4405751        -39.558281         47.502950    
   0.98000     116.51814         3.9323949         24.602215         1.9395765         196236.45         3106175.1         59.492052         2.3941041        -39.414812         48.255283    
   0.99000     124.29119         4.1010978         24.642390         1.9287945         195389.56         3178435.9         59.709601         2.3482305        -39.053356         48.476381    
   1.00000     132.38211         4.2607546         24.684207         1.9180496         194866.43         3251929.6         59.929224         2.3036024        -38.479691         48.150887    
   1.01000     140.77219         4.4101343         24.727570         1.9073109         194643.01         3326152.7         60.158412         2.2608107        -37.701842         47.278895    
   1.02000     149.44052         4.5482413         24.772372         1.8965563         194694.38         3400559.9         60.404748         2.2203971        -36.730230         45.877286    
   1.03000     158.36453         4.6743266         24.818495         1.8857707         194994.97         3474569.5         60.675860         2.1828553        -35.577904         43.980658    
   1.04000     167.52045         4.7878893         24.865817         1.8749450         195518.91         3547573.0         60.979221         2.1486246        -34.260754         41.641386    
   1.05000     176.88375         4.8886713         24.914210         1.8640747         196240.39         3618952.1         61.321770         2.1180776        -32.797588         38.928410    
   1.06000     186.42964         4.9766468         24.963548         1.8531590         197134.03         3688099.4         61.709411         2.0915045        -31.210016         35.924489    
   1.07000     196.13349         5.0520080         25.013701         1.8421995         198175.32         3754443.4         62.146442         2.0690964        -29.522063         32.721934    
   1.08000     205.97126         5.1151493         25.064547         1.8311999         199340.89         3817475.6         62.634977         2.0509292        -27.759512         29.417105    
   1.09000     215.91982         5.1666499         25.115965         1.8201652         200608.80         3876774.9         63.174447         2.0369524        -25.948983         26.104253    
   1.10000     225.95736         5.2072560         25.167844         1.8091017         201958.65         3932028.1         63.761268         2.0269842        -24.116803         22.869469    
   1.11000     236.06363         5.2378602         25.220077         1.7980165         203371.54         3983043.0         64.388732         2.0207142        -22.287762         19.785540    
   1.12000     246.22026         5.2594810         25.272571         1.7869182         204829.91         4029751.0         65.047175         2.0177170        -20.483877         16.908400    
   1.13000     256.41092         5.2732380         25.325241         1.7758166         206317.21         4072199.4         65.724442         2.0174737        -18.723291         14.275568    
   1.14000     266.62154         5.2803258         25.378013         1.7647238         207817.52         4110533.8         66.406596         2.0194031        -17.019439         11.906626    
   1.15000     276.84043         5.2819850         25.430829         1.7536538         209315.08         4144971.9         67.078833         2.0228977        -15.380584         9.8054430    
   1.16000     287.05829         5.2794721         25.483639         1.7426236         210793.89         4175773.6         67.726470         2.0273630        -13.809773         7.9636103    
   1.17000     297.26826         5.2740284         25.536409         1.7316529         212237.46         4203209.6         68.335916         2.0322540        -12.305228         6.3644427    
   1.18000     307.46582         5.2668510         25.589114         1.7207646         213628.62         4227532.9         68.895493         2.0371070        -10.861107         4.9869519    
   1.19000     317.64874         5.2590649         25.641744         1.7099840         214949.68         4248956.5         69.396037         2.0415612        -9.4685303         3.8093198    
   1.20000     327.81684         5.2516993         25.694297         1.6993391         216182.61         4267638.4         69.831200         2.0453701        -8.1167465         2.8115873    
   1.21000     337.97185         5.2456681         25.746782         1.6888596         217309.60         4283674.9         70.197481         2.0484013        -6.7942897         1.9774460    
   1.22000     348.11712         5.2417553         25.799217         1.6785762         218313.56         4297102.0         70.493987         2.0506258        -5.4900093         1.2951552    
   1.23000     358.25739         5.2406046         25.851626         1.6685201         219178.84         4307902.3         70.722010         2.0521011        -4.1938836        0.75770226    
   1.24000     368.39853         5.2427144         25.904040         1.6587215         219891.88         4316016.7         70.884494         2.0529489        -2.8975701        0.36236899    
   1.25000     378.54720         5.2484362         25.956493         1.6492092         220441.76         4321358.0         70.985461         2.0533320        -1.5946868        0.10989325    
   1.26000     388.71061         5.2579762         26.009022         1.6400097         220820.68         4323825.0         71.029469         2.0534327       -0.28084749        0.34104304E-02
   1.27000     398.89624         5.2714011         26.061665         1.6311465         221024.29         4323315.5         71.021163         2.0534345         1.0465027        0.47347566E-01
   1.28000     409.11156         5.2886445         26.114462         1.6226392         221051.75         4319736.2         70.964922         2.0535085         2.3883997        0.24641733    
   1.29000     419.36379         5.3095156         26.167450         1.6145037         220905.71         4313010.7         70.864654         2.0538047         3.7447628        0.60482422    
   1.30000     429.65968         5.3337088         26.220664         1.6067521         220592.08         4303083.3         70.723722         2.0544490         5.1148329         1.1257518    
   1.31000     440.00526         5.3608133         26.274134         1.5993919         220119.66         4289919.2         70.544998         2.0555457         6.4975931         1.8111488    
   1.32000     450.40571         5.3903218         26.327888         1.5924271         219499.72         4273502.7         70.331041         2.0571837         7.8921246         2.6617781    
   1.33000     460.86509         5.4216391         26.381947         1.5858580         218745.45         4253831.9         70.084369         2.0594481         9.2978541         3.6774416    
   1.34000     471.38629         5.4540891         26.436325         1.5796820         217871.48         4230912.5         69.807787         2.0624329         10.714659         4.8572537    
   1.35000     481.97076         5.4869207         26.491030         1.5738934         216893.41         4204751.5         69.504743         2.0662560         12.142813         6.1998183    
   1.36000     492.61847         5.5193137         26.546062         1.5684846         215827.41         4175351.1         69.179663         2.0710732         13.582760         7.7031620    
   1.37000     503.32773         5.5503839         26.601412         1.5634458         214689.84         4142705.9         68.838223         2.0770912         15.034737         9.3643092    
   1.38000     514.09506         5.5791905         26.657062         1.5587662         213497.09         4106801.6         68.487526         2.0845762         16.498275         11.178430    
   1.39000     524.91515         5.6047454         26.712985         1.5544336         212265.41         4067618.2         68.136165         2.0938594         17.971618         13.137554    
   1.40000     535.78072         5.6260273         26.769142         1.5504352         211010.79         4025136.1         67.794156         2.1053374         19.451102         15.228917    
   1.41000     546.68249         5.6420008         26.825487         1.5467577         209748.97         3979345.6         67.472757         2.1194677         20.930566         17.433060    
   1.42000     557.60920         5.6516425         26.881961         1.5433876         208495.36         3930258.6         67.184170         2.1367605         22.400809         19.721891    
   1.43000     568.54765         5.6539735         26.938496         1.5403112         207265.00         3877921.3         66.941167         2.1577658         23.849151         22.056919    
   1.44000     579.48281         5.6480995         26.995013         1.5375150         206072.44         3822428.0         66.756654         2.1830579         25.259110         24.387956    
   1.45000     590.39804         5.6332551         27.051428         1.5349860         204931.56         3763933.2         66.643193         2.2132165         26.610224         26.652562    
   1.46000     601.27537         5.6088509         27.107647         1.5327115         203855.41         3702661.9         66.612505         2.2488046         27.878018         28.776493    
   1.47000     612.09593         5.5745194         27.163572         1.5306797         202855.90         3638917.8         66.674974         2.2903435         29.034144         30.675406    
   1.48000     622.84034         5.5301548         27.219104         1.5288796         201943.61         3573087.1         66.839157         2.3382846         30.046688         32.257954    
   1.49000     633.48934         5.4759425         27.274142         1.5273013         201127.48         3505638.9         67.111320         2.3929775         30.880667         33.430319    
   1.50000     644.02428         5.4123730         27.328591         1.5259362         200414.72         3437121.5         67.495007         2.4546342         31.498727         34.102081    
   1.51000     654.42780         5.3402380         27.382361         1.5247769         199810.67         3368155.1         67.990652         2.5232898         31.862048         34.193178    
   1.52000     664.68430         5.2606054         27.435371         1.5238174         199318.93         3299421.3         68.595252         2.5987607         31.931478         33.641536    
   1.53000     674.78051         5.1747758         27.487552         1.5230531         198941.57         3231649.2         69.302108         2.6806014         31.668900         32.410831    
   1.54000     684.70583         5.0842215         27.538851         1.5224805         198679.50         3165601.2         70.100674         2.7680633         31.038838         30.497701    
   1.55000     694.45263         4.9905131         27.589226         1.5220975         198533.09         3102055.7         70.976530         2.8600603         30.010285         27.937647    
   1.56000     704.01636         4.8952394         27.638656         1.5219023         198502.75         3041791.2         71.911530         2.9551473         28.558712         24.808850    
   1.57000     713.39548         4.7999273         27.687131         1.5218940         198589.75         2985569.5         72.884169         3.0515187         26.668171         21.233112    
   1.58000     722.59128         4.7059671         27.734659         1.5220715         198796.91         2934119.3         73.870218         3.1470353         24.333360         17.373284    
   1.59000     731.60757         4.6145495         27.781259         1.5224338         199129.25         2888121.4         74.843636         3.2392871         21.561459         13.426775    
   1.60000     740.45023         4.5266174         27.826961         1.5229791         199594.44         2848194.0         75.777785         3.3256945         18.373508         9.6150986    
   1.61000     749.12669         4.4428360         27.871805         1.5237049         200203.01         2814880.3         76.646886         3.4036477         14.805070         6.1699391    
   1.62000     757.64538         4.3635813         27.915833         1.5246080         200968.22         2788637.4         77.427621         3.4706745         10.905950         3.3167982    
   1.63000     766.01521         4.2889477         27.959092         1.5256844         201905.74         2769827.3         78.100749         3.5246218         6.7388288         1.2578288    
   1.64000     774.24499         4.2187717         28.001627         1.5269295         203032.89         2758711.5         78.652542         3.5638260         2.3767849        0.15584255    
   1.65000     782.34301         4.1526695         28.043481         1.5283382         204367.86         2755447.3         79.075865         3.5872517        -2.1001519        0.12153280    
   1.66000     790.31664         4.0900859         28.084692         1.5299059         205928.69         2760089.5         79.370761         3.5945737        -6.6091126         1.2056173    
   1.67000     798.17205         4.0303486         28.125292         1.5316282         207732.36         2772593.9         79.544427         3.5861917        -11.068747         3.3969035    
   1.68000     805.91405         3.9727260         28.165306         1.5335019         209793.82         2792825.6         79.610609         3.5631749        -15.403361         6.6263566    
   1.69000     813.54601         3.9164830         28.204751         1.5355247         212125.34         2820569.3         79.588483         3.5271462        -19.546401         10.776318    
   1.70000     821.06992         3.8609333         28.243638         1.5376962         214735.82         2855542.6         79.501181         3.4801259        -23.442978         15.693297    
   1.71000     828.48653         3.8054830         28.281970         1.5400176         217630.43         2897410.1         79.374147         3.4243576        -27.051266         21.202406    
   1.72000     835.79557         3.7496663         28.319747         1.5424916         220810.23         2945798.7         79.233509         3.3621403        -30.342783         27.121511    
   1.73000     842.99599         3.6931688         28.356961         1.5451228         224272.06         3000311.9         79.104633         3.2956837        -33.301707         33.273569    
   1.74000     850.08630         3.6358395         28.393607         1.5479168         228008.36         3060543.1         79.010968         3.2269995        -35.923459         39.496153    
   1.75000     857.06489         3.5776914         28.429675         1.5508804         232007.15         3126087.0         78.973224         3.1578305        -38.212836         45.647774    
   1.76000     863.93029         3.5188904         28.465159         1.5540212         236252.11         3196548.8         79.008912         3.0896178        -40.181952         51.611134    
   1.77000     870.68153         3.4597346         28.500052         1.5573463         240722.72         3271550.5         79.132181         3.0234969        -41.848226         57.293815    
   1.78000     877.31829         3.4006265         28.534354         1.5608628         245394.54         3350735.4         79.353911         2.9603169        -43.232554         62.627046    
   1.79000     883.84111         3.3420400         28.568066         1.5645764         250239.69         3433770.2         79.681974         2.9006737        -44.357771         67.563270    
   1.80000     890.25148         3.2844848         28.601198         1.5684913         255227.50         3520345.0         80.121607         2.8449487        -45.247435         72.073093    
   1.81000     896.55191         3.2284723         28.633761         1.5726096         260325.30         3610173.2         80.675829         2.7933504        -45.924912         76.142073    
   1.82000     902.74585         3.1744834         28.665774         1.5769311         265499.50         3702989.6         81.345869         2.7459525        -46.412738         79.767663    
   1.83000     908.83763         3.1229419         28.697259         1.5814532         270716.62         3798548.2         82.131562         2.7027287        -46.732210         82.956473    
   1.84000     914.83235         3.0741944         28.728242         1.5861709         275944.47         3896620.6         83.031725         2.6635813        -46.903140         85.721933    
   1.85000     920.73566         3.0284973         28.758753         1.5910769         281153.19         3996992.9         84.044479         2.6283659        -46.943753         88.082371    
   1.86000     926.55365         2.9860119         28.788823         1.5961628         286316.19         4099463.7         85.167538         2.5969110        -46.870679         90.059499    
   1.87000     932.29260         2.9468061         28.818484         1.6014190         291410.69         4203841.4         86.398476         2.5690335        -46.699017         91.677296    
   1.88000     937.95887         2.9108636         28.847770         1.6068358         296418.10         4309941.7         87.734945         2.5445514        -46.442473         92.961276    
   1.89000     943.55868         2.8780987         28.876712         1.6124042         301323.81         4417585.4         89.174871         2.5232922        -46.113544         93.938141    
   1.90000     949.09806         2.8483746         28.905342         1.6181167         306116.77         4526596.2         90.716601         2.5050998        -45.723752         94.635804    
   1.91000     954.58275         2.8215249         28.933689         1.6239674         310788.67         4636799.6         92.358983         2.4898365        -45.283911         95.083724    
   1.92000     960.01812         2.7973763         28.961782         1.6299529         315332.93         4748023.9         94.101367         2.4773824        -44.804402         95.313467    
   1.93000     965.40926         2.7757705         28.989645         1.6360722         319743.55         4860102.1         95.943512         2.4676311        -44.295426         95.359322    
   1.94000     970.76094         2.7565831         29.017305         1.6423264         324014.01         4972876.7         97.885398         2.4604822        -43.767190         95.258780    
   1.95000     976.07778         2.7397405         29.044785         1.6487183         328136.34         5086206.4         99.926966         2.4558324        -43.230003         95.052712    
   1.96000     981.36429         2.7252302         29.072108         1.6552520         332100.34         5199973.9         102.06782         2.4535658        -42.694255         94.785095    
   1.97000     986.62501         2.7131075         29.099297         1.6619317         335893.22         5314094.3         104.30695         2.4535449        -42.170283         94.502282    
   1.98000     991.86468         2.7034949         29.126378         1.6687610         339499.50         5428523.1         106.64248         2.4556053        -41.668149         94.251900    
   1.99000     997.08833         2.6965775         29.153376         1.6757417         342901.36         5543261.3         109.07153         2.4595522        -41.197377         94.081556    
   2.00000     1002.3014         2.6925926         29.180319         1.6828730         346079.22         5658359.7         111.59016         2.4651613        -40.766690         94.037583    
   2.01000     1007.5098         2.6918153         29.207239         1.6901506         349012.79         5773919.6         114.19340         2.4721811        -40.383796         94.164023    
   2.02000     1012.7200         2.6945423         29.234167         1.6975661         351682.24         5890091.9         116.87529         2.4803366        -40.055241         94.501950    
   2.03000     1017.9392         2.7010726         29.261142         1.7051067         354069.72         6007076.2         119.62889         2.4893327        -39.786327         95.089122    
   2.04000     1023.1749         2.7116889         29.288203         1.7127553         356160.89         6125119.3         122.44631         2.4988556        -39.581056         95.959792    
   2.05000     1028.4353         2.7266384         29.315390         1.7204903         357946.43         6244513.7         125.31859         2.5085738        -39.442071         97.144463    
   2.06000     1033.7289         2.7461146         29.342750         1.7282872         359423.59         6365598.0         128.23562         2.5181376        -39.370544         98.669296    
   2.07000     1039.0648         2.7702407         29.370328         1.7361185         360597.23         6488754.9         131.18605         2.5271808        -39.365986         100.55499    
   2.08000     1044.4518         2.7990541         29.398171         1.7439555         361480.72         6614408.5         134.15739         2.5353247        -39.426012         102.81506    
   2.09000     1049.8991         2.8324929         29.426325         1.7517693         362096.16         6743017.2         137.13615         2.5421882        -39.546075         105.45351    
   2.10000     1055.4155         2.8703857         29.454836         1.7595326         362474.12         6875062.0         140.10842         2.5474029        -39.719272         108.46239    
   2.11000     1061.0092         2.9124442         29.483746         1.7672204         362652.77         7011029.7         143.06048         2.5506325        -39.936281         111.81937    
   2.12000     1066.6880         2.9582606         29.513097         1.7748120         362676.51         7151391.8         145.97968         2.5515957        -40.185504         115.48602    
   2.13000     1072.4587         3.0073113         29.542922         1.7822915         362594.12         7296581.2         148.85533         2.5500869        -40.453444         119.40717    
   2.14000     1078.3270         3.0589665         29.573252         1.7896487         362456.68         7446968.9         151.67945         2.5459932        -40.725307         123.51175    
   2.15000     1084.2971         3.1125074         29.604108         1.7968795         362315.38         7602843.8         154.44734         2.5393022        -40.985766         127.71508    
   2.16000     1090.3720         3.1671496         29.635506         1.8039855         362219.43         7764398.7         157.15774         2.5301016        -41.219785         131.92263    
   2.17000     1096.5530         3.2220720         29.667452         1.8109741         362214.23         7931722.7         159.81266         2.5185680        -41.413397         136.03456    
   2.18000     1102.8399         3.2764490         29.699945         1.8178570         362339.92         8104801.7         162.41686         2.5049481        -41.554327         139.95064    
   2.19000     1109.2309         3.3294833         29.732976         1.8246501         362630.32         8283525.4         164.97707         2.4895359        -41.632385         143.57466    
   2.20000     1115.7225         3.3804370         29.766528         1.8313716         363112.38         8467698.6         167.50118         2.4726491        -41.639610         146.81779    
   2.21000     1122.3102         3.4286573         29.800576         1.8380413         363805.97         8657054.2         169.99744         2.4546086        -41.570170         149.60074    
   2.22000     1128.9881         3.4735955         29.835090         1.8446793         364724.03         8851264.3         172.47395         2.4357247        -41.420105         151.85451    
   2.23000     1135.7494         3.5148181         29.870036         1.8513053         365873.01         9049948.3         174.93836         2.4162894        -41.186988         153.52042    
   2.24000     1142.5866         3.5520085         29.905373         1.8579372         367253.43         9252675.8         177.39790         2.3965757        -40.869614         154.54979    
   2.25000     1149.4917         3.5849617         29.941062         1.8645914         368860.67         9458966.2         179.85964         2.3768406        -40.467776         154.90390    
   2.26000     1156.4564         3.6135723         29.977058         1.8712819         370685.76         9668285.5         182.33072         2.3573300        -39.982174         154.55472    
   2.27000     1163.4722         3.6378189         30.013318         1.8780202         372716.29         9880044.3         184.81861         2.3382816        -39.414441         153.48631    
   2.28000     1170.5307         3.6577462         30.049800         1.8848154         374937.31         10093599.         187.33119         2.3199255        -38.767240         151.69659    
   2.29000     1177.6236         3.6734478         30.086459         1.8916746         377332.25         10308260.         189.87652         2.3024803        -38.044369         149.19907    
   2.30000     1184.7430         3.6850506         30.123255         1.8986031         379883.77         10523301.         192.46249         2.2861468        -37.250796         146.02362    
   2.31000     1191.8809         3.6927024         30.160147         1.9056042         382574.49         10737981.         195.09627         2.2711006        -36.392592         142.21605    
   2.32000     1199.0300         3.6965619         30.197097         1.9126806         385387.71         10951559.         197.78385         2.2574851        -35.476738         137.83620    
   2.33000     1206.1830         3.6967924         30.234066         1.9198334         388307.81         11163317.         200.52966         2.2454084        -34.510823         132.95477    
   2.34000     1213.3331         3.6935566         30.271021         1.9270633         391320.58         11372574.         203.33651         2.2349438        -33.502712         127.64937    
   2.35000     1220.4737         3.6870141         30.307926         1.9343705         394413.37         11578691.         206.20577         2.2261344        -32.460210         122.00064    
   2.36000     1227.5985         3.6773186         30.344751         1.9417545         397575.09         11781075.         209.13785         2.2190021        -31.390831         116.08886    
   2.37000     1234.7017         3.6646166         30.381463         1.9492147         400796.08         11979179.         212.13277         2.2135571        -30.301676         109.99181    
   2.38000     1241.7774         3.6490461         30.418033         1.9567501         404068.01         12172490.         215.19090         2.2098077        -29.199477         103.78380    
   2.39000     1248.8204         3.6307349         30.454435         1.9643597         407383.78         12360529.         218.31335         2.2077671        -28.090754         97.535752    
   2.40000     1255.8254         3.6098005         30.490639         1.9720421         410737.44         12542846.         221.50223         2.2074558        -26.982072         91.315961    
   2.41000     1262.7875         3.5863499         30.526622         1.9797964         414124.27         12719033.         224.76052         2.2088994        -25.880300         85.190802    
   2.42000     1269.7018         3.5604803         30.562358         1.9876216         417540.92         12888732.         228.09151         2.2121213        -24.792823         79.224978    
   2.43000     1276.5638         3.5322805         30.597824         1.9955168         420985.65         13051658.         231.49803         2.2171323        -23.727632         73.480901    
   2.44000     1283.3690         3.5018329         30.632996         2.0034818         424458.58         13207627.         234.98150         2.2239185        -22.693259         68.017171    
   2.45000     1290.1132         3.4692162         30.667853         2.0115166         427961.96         13356576.         238.54101         2.2324304        -21.698545         62.886347    
   2.46000     1296.7923         3.4345071         30.702374         2.0196215         431500.32         13498582.         242.17261         2.2425745        -20.752253         58.132454    
   2.47000     1303.4023         3.3977829         30.736537         2.0277976         435080.54         13633874.         245.86899         2.2542107        -19.862598         53.788743    
   2.48000     1309.9393         3.3591222         30.770323         2.0360461         438711.78         13762826.         249.61962         2.2671545        -19.036744         49.876156    
   2.49000     1316.3997         3.3186062         30.803713         2.0443689         442405.23         13885944.         253.41139         2.2811862        -18.280355         46.402848    
   2.50000     1322.7800         3.2763178         30.836689         2.0527681         446173.70         14003836.         257.22969         2.2960646        -17.597275         43.364850    
   2.51000     1329.0768         3.2323421         30.869234         2.0612466         450031.16         14117174.         261.05975         2.3115440        -16.989401         40.747776    
   2.52000     1335.2870         3.1867657         30.901331         2.0698079         453992.13         14226655.         264.88809         2.3273926        -16.456760         38.529332    
   2.53000     1341.4075         3.1396774         30.932964         2.0784562         458071.08         14332963.         268.70381         2.3434077        -15.997798         36.682287    
   2.54000     1347.4356         3.0911697         30.964119         2.0871973         462281.84         14436738.         272.49951         2.3594276        -15.609835         35.177559    
   2.55000     1353.3684         3.0413422         30.994783         2.0960382         466636.98         14538558.         276.27171         2.3753363        -15.289615         33.987123    
   2.56000     1359.2037         2.9903061         31.024942         2.1049877         471147.30         14638931.         280.02065         2.3910613        -15.033869         33.086507    
   2.57000     1364.9392         2.9381903         31.054586         2.1140568         475821.33         14738311.         283.74950         2.4065640        -14.839807         32.456690    
   2.58000     1370.5729         2.8851480         31.083703         2.1232590         480664.83         14837110.         287.46313         2.4218255        -14.705451         32.085292    
   2.59000     1376.1032         2.8313632         31.112286         2.1326097         485680.34         14935733.         291.16653         2.4368282        -14.629774         31.966995    
   2.60000     1381.5289         2.7770561         31.140329         2.1421269         490866.77         15034609.         294.86326         2.4515375        -14.612618         32.103189    
   2.61000     1386.8493         2.7224854         31.167826         2.1518297         496218.97         15134216.         298.55391         2.4658853        -14.654383         32.500869    
   2.62000     1392.0640         2.6679488         31.194778         2.1617388         501727.38         15235104.         302.23513         2.4797593        -14.755561         33.170872    
   2.63000     1397.1735         2.6137783         31.221187         2.1718746         507377.82         15337908.         305.89909         2.4929989        -14.916150         34.125547    
   2.64000     1402.1789         2.5603327         31.247056         2.1822566         513151.31         15443335.         309.53373         2.5053990        -15.135049         35.376001    
   2.65000     1407.0818         2.5079861         31.272397         2.1929020         519024.20         15552153.         313.12366         2.5167228        -15.409517         36.929085    
   2.66000     1411.8849         2.4571144         31.297221         2.2038244         524968.40         15665148.         316.65163         2.5267208        -15.734792         38.784351    
   2.67000     1416.5912         2.4080798         31.321545         2.2150330         530951.96         15783087.         320.10060         2.5351552        -16.103926         40.931294    
   2.68000     1421.2047         2.3612165         31.345390         2.2265318         536939.82         15906666.         323.45585         2.5418262        -16.507882         43.347282    
   2.69000     1425.7299         2.3168167         31.368778         2.2383187         542894.74         16036460.         326.70715         2.5465965        -16.935915         45.996610    
   2.70000     1430.1717         2.2751206         31.391735         2.2503859         548778.47         16172884.         329.85050         2.5494100        -17.376187         48.831093    
   2.71000     1434.5357         2.2363090         31.414290         2.2627203         554552.95         16316158.         332.88919         2.5503031        -17.816573         51.792427    
   2.72000     1438.8274         2.2005008         31.436471         2.2753042         560181.53         16466302.         335.83411         2.5494044        -18.245540         54.816277    
   2.73000     1443.0528         2.1677541         31.458310         2.2881164         565630.19         16623137.         338.70297         2.5469243        -18.653010         57.837672    
   2.74000     1447.2178         2.1380708         31.479837         2.3011340         570868.51         16786313.         341.51874         2.5431340        -19.031067         60.796921    
   2.75000     1451.3283         2.1114051         31.501082         2.3143332         575870.52         16955356.         344.30727         2.5383371        -19.374427         63.645055    
   2.76000     1455.3901         2.0876730         31.522075         2.3276912         580615.27         17129725.         347.09456         2.5328381        -19.680583         66.347769    
   2.77000     1459.4087         2.0667634         31.542844         2.3411865         585087.09         17308872.         349.90393         2.5269117        -19.949614         68.887074    
   2.78000     1463.3895         2.0485487         31.563419         2.3547999         589275.57         17492300.         352.75359         2.5207776        -20.183679         71.260293    
   2.79000     1467.3376         2.0328945         31.583824         2.3685146         593175.28         17679613.         355.65506         2.5145846        -20.386286         73.476587    
   2.80000     1471.2577         2.0196665         31.604085         2.3823162         596785.26         17870536.         358.61245         2.5084058        -20.561426         75.551662    
   2.81000     1475.1544         2.0087355         31.624225         2.3961918         600108.31         18064922.         361.62306         2.5022463        -20.712737         77.501672    
   2.82000     1479.0322         1.9999795         31.644267         2.4101299         603150.28         18262728.         364.67886         2.4960595        -20.842816         79.337491    
   2.83000     1482.8950         1.9932827         31.664231         2.4241197         605919.24         18463978.         367.76889         2.4897728        -20.952787         81.060423    
   2.84000     1486.7467         1.9885336         31.684139         2.4381506         608424.85         18668705.         370.88200         2.4833136        -21.042197         82.660181    
   2.85000     1490.5911         1.9856210         31.704008         2.4522122         610677.73         18876896.         374.00944         2.4766350        -21.109253         84.115553    
   2.86000     1494.4315         1.9844305         31.723857         2.4662942         612689.11         19088446.         377.14696         2.4697332        -21.151333         85.397680    
   2.87000     1498.2712         1.9848416         31.743702         2.4803867         614470.57         19303129.         380.29576         2.4626562        -21.165682         86.475333    
   2.88000     1502.1131         1.9867262         31.763559         2.4944808         616034.04         19520589.         383.46243         2.4554998        -21.150143         87.321165    
   2.89000     1505.9600         1.9899486         31.783441         2.5085689         617391.88         19740363.         386.65752         2.4483942        -21.103787         87.917622    
   2.90000     1509.8143         1.9943673         31.803362         2.5226451         618557.15         19961922.         389.89332         2.4414815        -21.027314         88.261227    
   2.91000     1513.6782         1.9998383         31.823332         2.5367055         619543.81         20184732.         393.18100         2.4348911        -20.923140         88.364273    
   2.92000     1517.5535         2.0062182         31.843362         2.5507479         620366.99         20408315.         396.52788         2.4287151        -20.795165         88.253493    
   2.93000     1521.4420         2.0133681         31.863459         2.5647716         621043.16         20632305.         399.93513         2.4229911        -20.648258         87.965945    
   2.94000     1525.3450         2.0211556         31.883631         2.5787771         621590.24         20856486.         403.39647         2.4176920        -20.487544         87.542905    
   2.95000     1529.2635         2.0294557         31.903884         2.5927653         622027.54         21080808.         406.89800         2.4127277        -20.317634         87.022892    
   2.96000     1533.1985         2.0381493         31.924221         2.6067369         622375.66         21305372.         410.41925         2.4079564        -20.141899         86.435059    
   2.97000     1537.1506         2.0471208         31.944648         2.6206922         622656.28         21530391.         413.93533         2.4032038        -19.961929         85.794000    
   2.98000     1541.1203         2.0562542         31.965164         2.6346308         622891.81         21756130.         417.41977         2.3982883        -19.777237         85.096735    
   2.99000     1545.1076         2.0654281         31.985773         2.6485517         623104.99         21982838.         420.84770         2.3930469        -19.585257         84.322275    
   3.00000     1549.1127         2.0745124         32.006473         2.6624535         623318.45         22210671.         424.19895         2.3873601        -19.381630         83.433848    
