   emu(eV)      n(10^20/cm3)               DOS            intDOS            DOSvk2         |vk|(m/s)             sigma                ke      L(1E-8V2K-2)           S(uV/K)                PF  EFF(10^-20 W^5/3 m s^-1/3 K^-2)
  -3.00000    -1994.7516         1.1416833         13.690276        0.21688374E+12     435853.64        0.22410827E+21    0.38146227E+16     2.1276672         46.588060         48.641520         1.8225865    
  -2.99000    -1992.5554         1.1285354         13.701627        0.21167515E+12     433089.18        0.21872618E+21    0.36994389E+16     2.1141953         48.175405         50.763494         1.9168412    
  -2.98000    -1990.3845         1.1155156         13.712847        0.20640555E+12     430152.90        0.21328105E+21    0.35839741E+16     2.1004996         49.859880         53.021831         2.0176650    
  -2.97000    -1988.2387         1.1025826         13.723938        0.20107252E+12     427042.20        0.20777037E+21    0.34684470E+16     2.0867069         51.647072         55.421086         2.1254247    
  -2.96000    -1986.1178         1.0896879         13.734899        0.19567401E+12     423755.65        0.20219203E+21    0.33531001E+16     2.0729675         53.542429         57.964245         2.2404583    
  -2.95000    -1984.0220         1.0767756         13.745731        0.19020853E+12     420293.23        0.19654450E+21    0.32382008E+16     2.0594578         55.551175         60.652316         2.3630633    
  -2.94000    -1981.9512         1.0637815         13.756434        0.18467527E+12     416656.49        0.19082692E+21    0.31240421E+16     2.0463846         57.678220         63.483860         2.4934833    
  -2.93000    -1979.9056         1.0506332         13.767007        0.17907421E+12     412848.73        0.18503928E+21    0.30109444E+16     2.0339900         59.928051         66.454476         2.6318931    
  -2.92000    -1977.8857         1.0372496         13.777446        0.17340628E+12     408875.21        0.17918255E+21    0.28992572E+16     2.0225583         62.304591         69.556193         2.7783806    
  -2.91000    -1975.8920         1.0235404         13.787750        0.16767348E+12     404743.33        0.17325879E+21    0.27893624E+16     2.0124249         64.810994         72.776747         2.9329237    
  -2.90000    -1973.9253         1.0094066         13.797916        0.16187904E+12     400462.86        0.16727133E+21    0.26816776E+16     2.0039877         67.449366         76.098704         3.0953608    
  -2.89000    -1971.9863        0.99474072         13.807937        0.15602756E+12     396046.07        0.16122493E+21    0.25766582E+16     1.9977200         70.220380         79.498430         3.2653524    
  -2.88000    -1970.0764        0.97942798         13.817808        0.15012522E+12     391507.94        0.15512598E+21    0.24748001E+16     1.9941857         73.122770         82.944923         3.4423332    
  -2.87000    -1968.1968        0.96334860         13.827523        0.14418000E+12     386866.19        0.14898272E+21    0.23766392E+16     1.9940560         76.152706         86.398578         3.6254539    
  -2.86000    -1966.3491        0.94638111         13.837072        0.13820193E+12     382141.34        0.14280552E+21    0.22827499E+16     1.9981282         79.303042         89.810000         3.8135147    
  -2.85000    -1964.5353        0.92840676         13.846447        0.13220330E+12     377356.65        0.13660708E+21    0.21937408E+16     2.0073455         82.562440         93.118986         4.0048920    
  -2.84000    -1962.7572        0.90931499         13.855637        0.12619887E+12     372537.99        0.13040264E+21    0.21102489E+16     2.0228204         85.914364         96.253812         4.1974591    
  -2.83000    -1961.0173        0.88900961         13.864629        0.12020598E+12     367713.69        0.12421011E+21    0.20329322E+16     2.0458602         89.335937         99.130969         4.3885039    
  -2.82000    -1959.3179        0.86741543         13.873413        0.11424456E+12     362914.39        0.11805012E+21    0.19624605E+16     2.0779951         92.796619         101.65546         4.5746450    
  -2.81000    -1957.6616        0.84448495         13.881973        0.10833711E+12     358172.85        0.11194588E+21    0.18995044E+16     2.1210074         96.256700         103.72180         4.7517497    
  -2.80000    -1956.0509        0.82020460         13.890298        0.10250846E+12     353523.88        0.10592308E+21    0.18447220E+16     2.1769594         99.665591         105.21583         4.9148591    
  -2.79000    -1954.4885        0.79459994         13.898373        0.96785507E+11     349004.40        0.10000949E+21    0.17987405E+16     2.2482122         102.95992         106.01751         5.0581304    
  -2.78000    -1952.9769        0.76773944         13.906186        0.91196789E+11     344653.62        0.94234610E+20    0.17621337E+16     2.3374290         106.06149         106.00489         5.1748143    
  -2.77000    -1951.5184        0.73973615         13.913724        0.85771998E+11     340513.51        0.88629117E+20    0.17353909E+16     2.4475462         108.87529         105.05944         5.2572902    
  -2.76000    -1950.1150        0.71074703         13.920977        0.80541401E+11     336629.42        0.83224285E+20    0.17188768E+16     2.5816935         111.28771         103.07290         5.2971945    
  -2.75000    -1948.7685        0.68096976         13.927936        0.75535186E+11     333051.00        0.78051310E+20    0.17127812E+16     2.7430372         113.16549         99.955850         5.2856829    
  -2.74000    -1947.4803        0.65063725         13.934595        0.70782773E+11     329833.17        0.73140591E+20    0.17170574E+16     2.9345152         114.35582         95.647809         5.2138738    
  -2.73000    -1946.2510        0.62001009         13.940948        0.66312092E+11     327037.07        0.68520989E+20    0.17313513E+16     3.1584324         114.68853         90.128801         5.0735179    
  -2.72000    -1945.0811        0.58936756         13.946995        0.62148872E+11     324730.82        0.64219090E+20    0.17549257E+16     3.4158957         113.98110         83.431461         4.8579213    
  -2.71000    -1943.9702        0.55899796         13.952736        0.58315963E+11     322989.66        0.60258504E+20    0.17865894E+16     3.7060939         112.04761         75.652539         4.5631156    
  -2.70000    -1942.9176        0.52918889         13.958176        0.54832726E+11     321895.25        0.56659238E+20    0.18246452E+16     4.0254803         108.71217         66.961792         4.1892026    
  -2.69000    -1941.9219        0.50021810         13.963323        0.51714527E+11     321533.76        0.53437170E+20    0.18668759E+16     4.3669883         103.82715         57.605686         3.7417135    
  -2.68000    -1940.9812        0.47234541         13.968185        0.48972353E+11     321992.41        0.50603652E+20    0.19105918E+16     4.7195007         97.294978         47.903000         3.2327170    
  -2.67000    -1940.0932        0.44580604         13.972774        0.46612587E+11     323354.29        0.48165281E+20    0.19527567E+16     5.0678535         89.091079         38.229845         2.6813284    
  -2.66000    -1939.2551        0.42080547         13.977106        0.44636940E+11     325691.57        0.46123824E+20    0.19902023E+16     5.3936396         79.283832         28.993094         2.1132543    
  -2.65000    -1938.4637        0.39751596         13.981196        0.43042548E+11     329057.43        0.44476322E+20    0.20199156E+16     5.6769410         68.046257         20.593841         1.5591183    
  -2.64000    -1937.7156        0.37607468         13.985062        0.41822237E+11     333477.53        0.43215361E+20    0.20393631E+16     5.8988373         55.654692         13.385719         1.0515674    
  -2.63000    -1937.0072        0.35658328         13.988724        0.40964920E+11     338942.14        0.42329487E+20    0.20467896E+16     6.0442192         42.471836         7.6356334        0.62151153    
  -2.62000    -1936.3345        0.33910895         13.992201        0.40456120E+11     345400.13        0.41803739E+20    0.20414293E+16     6.1042067         28.915345         3.4951989        0.29418725    
  -2.61000    -1935.6936        0.32368651         13.995513        0.40278567E+11     352756.24        0.41620271E+20    0.20235763E+16     6.0774962         15.417242        0.98927780        0.85890799E-01
  -2.60000    -1935.0806        0.31032166         13.998681        0.40412845E+11     360872.40        0.41759022E+20    0.19945016E+16     5.9702715         2.3820859        0.23695461E-01    0.21159329E-02
  -2.59000    -1934.4915        0.29899487         14.001726        0.40838061E+11     369573.38        0.42198402E+20    0.19562395E+16     5.7947678        -9.8479844        0.40925190        0.37462175E-01
  -2.58000    -1933.9223        0.28966578         14.004668        0.41532473E+11     378656.40        0.42915946E+20    0.19112987E+16     5.5669828        -21.015699         1.8954239        0.17720923    
  -2.57000    -1933.3693        0.28227788         14.007526        0.42474091E+11     387903.44        0.43888930E+20    0.18623598E+16     5.3041843        -30.956706         4.2059534        0.40005959    
  -2.56000    -1932.8288        0.27676310         14.010320        0.43641191E+11     397094.81        0.45094906E+20    0.18120145E+16     5.0227804        -39.594922         7.0697892        0.68136391    
  -2.55000    -1932.2972        0.27304627         14.013067        0.45012754E+11     406022.10        0.46512157E+20    0.17625753E+16     4.7368671        -46.929083         10.243553        0.99618021    
  -2.54000    -1931.7711        0.27104911         14.015786        0.46568810E+11     414499.08        0.48120046E+20    0.17159647E+16     4.4575101        -53.014962         13.524554         1.3217086    
  -2.53000    -1931.2472        0.27069378         14.018494        0.48290686E+11     422369.51        0.49899279E+20    0.16736750E+16     4.1926333        -57.947043         16.755478         1.6388886    
  -2.52000    -1930.7226        0.27190576         14.021205        0.50161175E+11     429511.36        0.51832075E+20    0.16367798E+16     3.9473140        -61.842208         19.822963         1.9331598    
  -2.51000    -1930.1941        0.27461632         14.023937        0.52164615E+11     435837.74        0.53902251E+20    0.16059782E+16     3.7242837        -64.826685         22.652416         2.1945312    
  -2.50000    -1929.6590        0.27876434         14.026702        0.54286916E+11     441294.97        0.56095247E+20    0.15816548E+16     3.5244849        -67.026541         25.201110         2.4171651    
  -2.49000    -1929.1145        0.28429770         14.029517        0.56515538E+11     445858.71        0.58398106E+20    0.15639433E+16     3.3475899        -68.561375         27.450977         2.5986853    
  -2.48000    -1928.5580        0.29117429         14.032393        0.58839436E+11     449529.03        0.60799414E+20    0.15527854E+16     3.1924349        -69.540601         29.401959         2.7393806    
  -2.47000    -1927.9869        0.29936260         14.035345        0.61248984E+11     452325.09        0.63289226E+20    0.15479825E+16     3.0573578        -70.061622         31.066345         2.8414276    
  -2.46000    -1927.3987        0.30884209         14.038384        0.63735891E+11     454280.18        0.65858973E+20    0.15492379E+16     2.9404458        -70.209329         32.464192         2.9082053    
  -2.45000    -1926.7910        0.31960326         14.041526        0.66293089E+11     455437.23        0.68501353E+20    0.15561908E+16     2.8397082        -70.056425         33.619798         2.9437375    
  -2.44000    -1926.1611        0.33164750         14.044781        0.68914626E+11     455845.15        0.71210215E+20    0.15684425E+16     2.7531908        -69.664265         34.559100         2.9522698    
  -2.43000    -1925.5068        0.34498677         14.048163        0.71595536E+11     455555.98        0.73980428E+20    0.15855764E+16     2.6790471        -69.083966         35.307857         2.9379733    
  -2.42000    -1924.8253        0.35964324         14.051685        0.74331707E+11     454622.69        0.76807742E+20    0.16071726E+16     2.6155772        -68.357641         35.890469         2.9047537    
  -2.41000    -1924.1142        0.37564889         14.055360        0.77119757E+11     453097.61        0.79688664E+20    0.16328182E+16     2.5612461        -67.519646         36.329285         2.8561448    
  -2.40000    -1923.3708        0.39304532         14.059203        0.79956917E+11     451031.32        0.82620331E+20    0.16621131E+16     2.5146854        -66.597750         36.644267         2.7952612    
  -2.39000    -1922.5923        0.41188360         14.063226        0.82840936E+11     448471.91        0.85600419E+20    0.16946737E+16     2.4746866        -65.614194         36.852885         2.7247915    
  -2.38000    -1921.7760        0.43222445         14.067445        0.85769998E+11     445464.43        0.88627050E+20    0.17301338E+16     2.4401887        -64.586593         36.970135         2.6470142    
  -2.37000    -1920.9188        0.45413858         14.071876        0.88742651E+11     442050.61        0.91698723E+20    0.17681448E+16     2.4102637        -63.528681         37.008627         2.5638276    
  -2.36000    -1920.0175        0.47770728         14.076534        0.91757740E+11     438268.67        0.94814247E+20    0.18083753E+16     2.3841027        -62.450941         36.978695         2.4767858    
  -2.35000    -1919.0691        0.50302311         14.081436        0.94814341E+11     434153.24        0.97972665E+20    0.18505099E+16     2.3610028        -61.361117         36.888538         2.3871383    
  -2.34000    -1918.0698        0.53019084         14.086600        0.97911684E+11     429735.42        0.10117318E+21    0.18942492E+16     2.3403549        -60.264666         36.744380         2.2958714    
  -2.33000    -1917.0161        0.55932844         14.092046        0.10104909E+12     425042.88        0.10441509E+21    0.19393083E+16     2.3216331        -59.165152         36.550662         2.2037488    
  -2.32000    -1915.9041        0.59056826         14.097794        0.10422588E+12     420100.06        0.10769771E+21    0.19854156E+16     2.3043846        -58.064584         36.310240         2.1113513    
  -2.31000    -1914.7294        0.62405826         14.103865        0.10744138E+12     414928.45        0.11102032E+21    0.20323107E+16     2.2882194        -56.963708         36.024583         2.0191116    
  -2.30000    -1913.4876        0.65996326         14.110283        0.11069478E+12     409546.95        0.11438210E+21    0.20797425E+16     2.2728016        -55.862223         35.693940         1.9273448    
  -2.29000    -1912.1739        0.69846623         14.117073        0.11398520E+12     403972.24        0.11778212E+21    0.21274671E+16     2.2578418        -54.758952         35.317471         1.8362738    
  -2.28000    -1910.7830        0.73976930         14.124262        0.11731154E+12     398219.22        0.12121926E+21    0.21752458E+16     2.2430901        -53.651951         34.893350         1.7460496    
  -2.27000    -1909.3093        0.78409475         14.131878        0.12067251E+12     392301.44        0.12469219E+21    0.22228443E+16     2.2283315        -52.538600         34.418841         1.6567691    
  -2.26000    -1907.7467        0.83168545         14.139954        0.12406654E+12     386231.58        0.12819927E+21    0.22700318E+16     2.2133821        -51.415658         33.890373         1.5684899    
  -2.25000    -1906.0887        0.88280505         14.148524        0.12749168E+12     380021.80        0.13173851E+21    0.23165812E+16     2.1980866        -50.279326         33.303635         1.4812438    
  -2.24000    -1904.3281        0.93773761         14.157623        0.13094556E+12     373684.19        0.13530744E+21    0.23622691E+16     2.1823164        -49.125296         32.653673         1.3950483    
  -2.23000    -1902.4573        0.99678666         14.167292        0.13442529E+12     367231.04        0.13890308E+21    0.24068769E+16     2.1659678        -47.948790         31.935019         1.3099171    
  -2.22000    -1900.4680         1.0602735         14.177574        0.13792733E+12     360675.15        0.14252178E+21    0.24501913E+16     2.1489622        -46.744606         31.141837         1.2258681    
  -2.21000    -1898.3514         1.1285347         14.188514        0.14144740E+12     354029.97        0.14615910E+21    0.24920071E+16     2.1312452        -45.507152         30.268101         1.1429310    
  -2.20000    -1896.0977         1.2019189         14.200161        0.14498034E+12     347309.76        0.14980972E+21    0.25321292E+16     2.1127877        -44.230492         29.307822         1.0611535    
  -2.19000    -1893.6968         1.2807821         14.212570        0.14851995E+12     340529.52        0.15346724E+21    0.25703763E+16     2.0935871        -42.908414         28.255345        0.98060750    
  -2.18000    -1891.1377         1.3654827         14.225797        0.15205884E+12     333705.02        0.15712402E+21    0.26065849E+16     2.0736684        -41.534509         27.105708        0.90139411    
  -2.17000    -1888.4089         1.4563745         14.239901        0.15558827E+12     326852.56        0.16077101E+21    0.26406129E+16     2.0530854        -40.102286         25.855087        0.82364877    
  -2.16000    -1885.4979         1.5537995         14.254946        0.15909795E+12     319988.82        0.16439761E+21    0.26723445E+16     2.0319217        -38.605292         24.501303        0.74754490    
  -2.15000    -1882.3918         1.6580796         14.270999        0.16257595E+12     313130.57        0.16799145E+21    0.27016940E+16     2.0102912        -37.037267         23.044382        0.67329633    
  -2.14000    -1879.0771         1.7695074         14.288131        0.16600850E+12     306294.34        0.17153835E+21    0.27286102E+16     1.9883384        -35.392301         21.487149        0.60115802    
  -2.13000    -1875.5396         1.8883376         14.306414        0.16937994E+12     299496.10        0.17502209E+21    0.27530803E+16     1.9662377        -33.665016         19.835837        0.53142526    
  -2.12000    -1871.7650         2.0147782         14.325923        0.17267264E+12     292750.84        0.17842448E+21    0.27751332E+16     1.9441931        -31.850775         18.100662        0.46443085    
  -2.11000    -1867.7381         2.1489835         14.346736        0.17586701E+12     286072.19        0.18172525E+21    0.27948415E+16     1.9224362        -29.945903         16.296341        0.40054022    
  -2.10000    -1863.4441         2.2910492         14.368929        0.17894157E+12     279472.07        0.18490222E+21    0.28123228E+16     1.9012229        -27.947917         14.442455        0.34014402    
  -2.09000    -1858.8675         2.4410101         14.392583        0.18187319E+12     272960.34        0.18793150E+21    0.28277373E+16     1.8808298        -25.855759         12.563602        0.28364766    
  -2.08000    -1853.9931         2.5988422         14.417776        0.18463739E+12     266544.59        0.19078777E+21    0.28412847E+16     1.8615479        -23.669995         10.689241        0.23145773    
  -2.07000    -1848.8059         2.7644682         14.444586        0.18720878E+12     260229.97        0.19344482E+21    0.28531980E+16     1.8436769        -21.392976         8.8531846        0.18396557    
  -2.06000    -1843.2907         2.9377676         14.473091        0.18956167E+12     254019.20        0.19587609E+21    0.28637361E+16     1.8275177        -19.028941         7.0926850        0.14152847    
  -2.05000    -1837.4329         3.1185902         14.503366        0.19167067E+12     247912.65        0.19805534E+21    0.28731743E+16     1.8133658        -16.584055         5.4471333        0.10444971    
  -2.04000    -1831.2181         3.3067711         14.535487        0.19351150E+12     241908.61        0.19995749E+21    0.28817953E+16     1.8015050        -14.066373         3.9564157        0.72958727E-01
  -2.03000    -1824.6322         3.5021477         14.569526        0.19506172E+12     236003.69        0.20155934E+21    0.28898796E+16     1.7922015        -11.485746         2.6590182        0.47192876E-01
  -2.02000    -1817.6614         3.7045729         14.605553        0.19630149E+12     230193.32        0.20284042E+21    0.28976968E+16     1.7856998        -8.8536606         1.5900114        0.27182302E-01
  -2.01000    -1810.2923         3.9139258         14.643640        0.19721432E+12     224472.39        0.20378365E+21    0.29054983E+16     1.7822199        -6.1830364        0.77906366        0.12839338E-01
  -2.00000    -1802.5115         4.1301136         14.683855        0.19778762E+12     218835.89        0.20437605E+21    0.29135122E+16     1.7819555        -3.4879869        0.24864498        0.39535125E-02
  -1.99000    -1794.3058         4.3530657         14.726265        0.19801319E+12     213279.66        0.20460913E+21    0.29219404E+16     1.7850745       -0.78357375        0.12562751E-01    0.19287060E-03
  -1.98000    -1785.6623         4.5827163         14.770938        0.19788753E+12     207801.05        0.20447929E+21    0.29309576E+16     1.7917203         1.9144338        0.74942816E-01    0.11117986E-02
  -1.97000    -1776.5681         4.8189761         14.817941        0.19741196E+12     202399.46        0.20398787E+21    0.29407125E+16     1.8020143         4.5897731        0.42972121        0.61649330E-02
  -1.96000    -1767.0104         5.0616935         14.867339        0.19659259E+12     197076.86        0.20314121E+21    0.29513307E+16     1.8160586         7.2258657         1.0606639        0.14726244E-01
  -1.95000    -1756.9771         5.3106074         14.919196        0.19544013E+12     191838.06        0.20195037E+21    0.29629181E+16     1.8339396         9.8059506         1.9418874        0.26111952E-01
  -1.94000    -1746.4565         5.5652938         14.973571        0.19396963E+12     186690.76        0.20043088E+21    0.29755643E+16     1.8557297         12.313177         3.0388192        0.39605687E-01
  -1.93000    -1735.4380         5.8251132         15.030519        0.19220000E+12     181645.44        0.19860230E+21    0.29893459E+16     1.8814900         14.730661         4.3095182        0.54484198E-01
  -1.92000    -1723.9126         6.0891608         15.090087        0.19015360E+12     176715.06        0.19648774E+21    0.30043292E+16     1.9112702         17.041520         5.7062675        0.70042008E-01
  -1.91000    -1711.8731         6.3562273         15.152312        0.18785571E+12     171914.49        0.19411330E+21    0.30205719E+16     1.9451088         19.228897         7.1773490        0.85613557E-01
  -1.90000    -1699.3152         6.6247766         15.217217        0.18533396E+12     167259.92        0.19150755E+21    0.30381238E+16     1.9830314         21.275975         8.6689173        0.10059169    
  -1.89000    -1686.2378         6.8929432         15.284807        0.18261778E+12     162768.06        0.18870089E+21    0.30570276E+16     2.0250485         23.166002         10.126891        0.11444173    
  -1.88000    -1672.6436         7.1585560         15.355067        0.17973785E+12     158455.41        0.18572503E+21    0.30773187E+16     2.0711523         24.882313         11.498784        0.12671063    
  -1.87000    -1658.5399         7.4191877         15.427961        0.17672558E+12     154337.52        0.18261241E+21    0.30990250E+16     2.1213132         26.408350         12.735407        0.13703137    
  -1.86000    -1643.9388         7.6722315         15.503426        0.17361256E+12     150428.36        0.17939571E+21    0.31221662E+16     2.1754745         27.727677         13.792374        0.14512291    
  -1.85000    -1628.8577         7.9149997         15.581371        0.17043023E+12     146739.78        0.17610737E+21    0.31467525E+16     2.2335468         28.823971         14.631375        0.15078656    
  -1.84000    -1613.3189         8.1448392         15.661682        0.16720945E+12     143281.18        0.17277930E+21    0.31727804E+16     2.2953997         29.681003         15.221198        0.15389999    
  -1.83000    -1597.3499         8.3592550         15.744217        0.16398028E+12     140059.33        0.16944257E+21    0.32002274E+16     2.3608496         30.282618         15.538510        0.15441011    
  -1.82000    -1580.9829         8.5560329         15.828809        0.16077191E+12     137078.35        0.16612733E+21    0.32290422E+16     2.4296441         30.612748         15.568462        0.15232651    
  -1.81000    -1564.2536         8.7333505         15.915273        0.15761256E+12     134339.88        0.16286273E+21    0.32591311E+16     2.5014402         30.655507         15.305190        0.14771668    
  -1.80000    -1547.2013         8.8898681         16.003406        0.15452960E+12     131843.33        0.15967708E+21    0.32903404E+16     2.5757770         30.395434         14.752285        0.14070423    
  -1.79000    -1529.8669         9.0247923         16.092998        0.15154966E+12     129586.24        0.15659787E+21    0.33224365E+16     2.6520447         29.817972         13.923296        0.13147061    
  -1.78000    -1512.2926         9.1379059         16.183829        0.14869878E+12     127564.66        0.15365203E+21    0.33550852E+16     2.7294507         28.910210         12.842241        0.12025997    
  -1.77000    -1494.5202         9.2295633         16.275684        0.14600251E+12     125773.63        0.15086594E+21    0.33878339E+16     2.8069904         27.661962         11.544023        0.10738604    
  -1.76000    -1476.5907         9.3006512         16.368352        0.14348588E+12     124207.53        0.14826549E+21    0.34201005E+16     2.8834260         26.067125         10.074566        0.93238554E-01
  -1.75000    -1458.5424         9.3525191         16.461633        0.14117336E+12     122860.44        0.14587594E+21    0.34511718E+16     2.9572833         24.125262         8.4903917        0.78286476E-01
  -1.74000    -1440.4110         9.3868854         16.555344        0.13908857E+12     121726.45        0.14372170E+21    0.34802159E+16     3.0268706         21.843251         6.8573591        0.63074522E-01
  -1.73000    -1422.2284         9.4057273         16.649319        0.13725395E+12     120799.81        0.14182597E+21    0.35063079E+16     3.0903262         19.236818         5.2483429        0.48210174E-01
  -1.72000    -1404.0227         9.4111654         16.743414        0.13569032E+12     120075.04        0.14021025E+21    0.35284700E+16     3.1456956         16.331725         3.7397610        0.34339423E-01
  -1.71000    -1385.8177         9.4053503         16.837505        0.13441639E+12     119546.99        0.13889389E+21    0.35457209E+16     3.1910340         13.164423         2.4070592        0.22111331E-01
  -1.70000    -1367.6332         9.3903619         16.931490        0.13344833E+12     119210.74        0.13789357E+21    0.35571321E+16     3.2245267         9.7820115         1.3194726        0.12133615E-01
  -1.69000    -1349.4850         9.3681258         17.025288        0.13279925E+12     119061.53        0.13722288E+21    0.35618836E+16     3.2446153         6.2414450        0.53456045        0.49234904E-02
  -1.68000    -1331.3854         9.3403515         17.118835        0.13247895E+12     119094.54        0.13689191E+21    0.35593150E+16     3.2501145         2.6080165        0.93110458E-01    0.85927941E-03
  -1.67000    -1313.3437         9.3084940         17.212082        0.13249352E+12     119304.72        0.13690696E+21    0.35489657E+16     3.2403079        -1.0467526        0.15000772E-01    0.13875184E-03
  -1.66000    -1295.3666         9.2737367         17.304995        0.13284512E+12     119686.57        0.13727028E+21    0.35306033E+16     3.2150107        -4.6476337        0.29651065        0.27494672E-02
  -1.65000    -1277.4589         9.2369928         17.397550        0.13353175E+12     120233.91        0.13797977E+21    0.35042388E+16     3.1745946        -8.1184064        0.90940431        0.84550210E-02
  -1.64000    -1259.6236         9.1989218         17.489730        0.13454692E+12     120939.57        0.13902876E+21    0.34701294E+16     3.1199743        -11.384572         1.8019306        0.16799313E-01
  -1.63000    -1241.8628         9.1599566         17.581525        0.13587937E+12     121795.17        0.14040560E+21    0.34287717E+16     3.0525596        -14.375909         2.9017168        0.27129232E-01
  -1.62000    -1224.1781         9.1203367         17.672927        0.13751262E+12     122790.80        0.14209325E+21    0.33808875E+16     2.9741803        -17.028770         4.1204058        0.38634696E-01
  -1.61000    -1206.5707         9.0801459         17.763930        0.13942451E+12     123914.79        0.14406882E+21    0.33274040E+16     2.8869917        -19.288069         5.3597870        0.50403852E-01
  -1.60000    -1189.0415         9.0393505         17.854528        0.14158670E+12     125153.39        0.14630304E+21    0.32694284E+16     2.7933702        -21.108941         6.5190787        0.61490236E-01
  -1.59000    -1171.5920         8.9978372         17.944715        0.14396429E+12     126490.62        0.14875983E+21    0.32082195E+16     2.6958046        -22.458051         7.5029112        0.70987597E-01
  -1.58000    -1154.2236         8.9554494         18.034482        0.14651555E+12     127908.13        0.15139607E+21    0.31451516E+16     2.5967910        -23.314572         8.2294252        0.78106887E-01
  -1.57000    -1136.9382         8.9120217         18.123820        0.14919201E+12     129385.22        0.15416169E+21    0.30816744E+16     2.4987356        -23.670766         8.6377590        0.82248568E-01
  -1.56000    -1119.7380         8.8674109         18.212718        0.15193902E+12     130898.98        0.15700020E+21    0.30192653E+16     2.4038705        -23.532168         8.6940891        0.83062363E-01
  -1.55000    -1102.6253         8.8215251         18.301164        0.15469683E+12     132424.66        0.15984988E+21    0.29593763E+16     2.3141840        -22.917317         8.3953699        0.80486333E-01
  -1.54000    -1085.6026         8.7743485         18.389145        0.15740232E+12     133936.25        0.16264549E+21    0.29033767E+16     2.2313689        -21.857021         7.7700522        0.74758189E-01
  -1.53000    -1068.6724         8.7259608         18.476647        0.15999135E+12     135407.16        0.16532076E+21    0.28524951E+16     2.1567883        -20.393145         6.8753660        0.66394444E-01
  -1.52000    -1051.8368         8.6765516         18.563660        0.16240162E+12     136811.18        0.16781132E+21    0.28077630E+16     2.0914583        -18.576962         5.7912275        0.56137182E-01
  -1.51000    -1035.0976         8.6264239         18.650176        0.16457575E+12     138123.48        0.17005787E+21    0.27699641E+16     2.0360452        -16.467108         4.6113852        0.44873398E-01
  -1.50000    -1018.4558         8.5759872         18.736188        0.16646445E+12     139321.67        0.17200948E+21    0.27395944E+16     1.9908746        -14.127243         3.4329478        0.33536871E-01
  -1.49000    -1001.9114         8.5257356         18.821696        0.16802923E+12     140386.87        0.17362639E+21    0.27168347E+16     1.9559489        -11.623503         2.3457936        0.23006293E-01
  -1.48000    -985.46368         8.4762117         18.906705        0.16924451E+12     141304.63        0.17488215E+21    0.27015384E+16     1.9309706        -9.0218660         1.4234369        0.14014635E-01
  -1.47000    -969.11062         8.4279549         18.991225        0.17009874E+12     142065.77        0.17576483E+21    0.26932377E+16     1.9153701        -6.3855379        0.71668277        0.70831033E-02
  -1.46000    -952.84931         8.3814394         19.075270        0.17059439E+12     142666.85        0.17627699E+21    0.26911665E+16     1.9083365        -3.7724854        0.25087117        0.24885695E-02
  -1.45000    -936.67603         8.3370059         19.158860        0.17074686E+12     143110.44        0.17643454E+21    0.26943017E+16     1.9088536        -1.2332262        0.26832991E-01    0.26712043E-03
  -1.44000    -920.58657         8.2947953         19.242017        0.17058243E+12     143405.01        0.17626463E+21    0.27014196E+16     1.9157414         1.1910044        0.25002989E-01    0.24974659E-03
  -1.43000    -904.57670         8.2546922         19.324763        0.17013540E+12     143564.45        0.17580272E+21    0.27111655E+16     1.9277044         3.4696026        0.21163381        0.21207813E-02
  -1.42000    -888.64269         8.2162845         19.407117        0.16944493E+12     143607.31        0.17508925E+21    0.27221314E+16     1.9433885         5.5833652        0.54582265        0.54867182E-02
  -1.41000    -872.78192         8.1788468         19.489092        0.16855172E+12     143555.74        0.17416628E+21    0.27329383E+16     1.9614433         7.5246117        0.98612565        0.99429585E-02
  -1.40000    -856.99345         8.1413483         19.570694        0.16749497E+12     143434.20        0.17307433E+21    0.27423145E+16     1.9805902         9.2966285         1.4958347        0.15128556E-01
  -1.39000    -841.27862         8.1024868         19.651915        0.16630988E+12     143268.22        0.17184976E+21    0.27491673E+16     1.9996880         10.912459         2.0464173        0.20763157E-01
  -1.38000    -825.64151         8.0607449         19.732734        0.16502566E+12     143083.04        0.17052277E+21    0.27526392E+16     2.0177945         12.393117         2.6190482        0.26664787E-01
  -1.37000    -810.08927         8.0144641         19.813114        0.16366443E+12     142902.53        0.16911620E+21    0.27521479E+16     2.0342137         13.765351         3.2044966        0.32750774E-01
  -1.36000    -794.63236         7.9619301         19.893002        0.16224067E+12     142748.22        0.16764501E+21    0.27474039E+16     2.0485279         15.059137         3.8018135        0.39026235E-01
  -1.35000    -779.28450         7.9014632         19.972327        0.16076145E+12     142638.64        0.16611652E+21    0.27384086E+16     2.0606083         16.305081         4.4163016        0.45565044E-01
  -1.34000    -764.06258         7.8315083         20.051000        0.15922719E+12     142588.96        0.16453114E+21    0.27254320E+16     2.0706050         17.531932         5.0571715        0.52487452E-01
  -1.33000    -748.98629         7.7507180         20.128921        0.15763282E+12     142610.78        0.16288367E+21    0.27089739E+16     2.0789177         18.764373         5.7351614        0.59937107E-01
  -1.32000    -734.07769         7.6580267         20.205975        0.15596938E+12     142712.24        0.16116482E+21    0.26897127E+16     2.0861507         20.021210         6.4602729        0.68058813E-01
  -1.31000    -719.36055         7.5527114         20.282039        0.15422570E+12     142898.26        0.15936305E+21    0.26684466E+16     2.0930562         21.314067         7.2396955        0.76977380E-01
  -1.30000    -704.85970         7.4344377         20.356986        0.15239019E+12     143170.80        0.15746641E+21    0.26460308E+16     2.1004724         22.646625         8.0759738        0.86777587E-01
  -1.29000    -690.60019         7.3032892         20.430685        0.15045263E+12     143529.33        0.15546430E+21    0.26233159E+16     2.1092590         24.014409         8.9654994        0.97485549E-01
  -1.28000    -676.60650         7.1597789         20.503010        0.14840566E+12     143971.13        0.15334915E+21    0.26010911E+16     2.1202360         25.405118         9.8974612        0.10905247    
  -1.27000    -662.90172         7.0048404         20.573842        0.14624608E+12     144491.73        0.15111762E+21    0.25800344E+16     2.1341276         26.799451         10.853427        0.12134247    
  -1.26000    -649.50674         6.8398005         20.643073        0.14397570E+12     145085.12        0.14877162E+21    0.25606732E+16     2.1515135         28.172353         11.807728        0.13412677    
  -1.25000    -636.43953         6.6663311         20.710610        0.14160179E+12     145744.08        0.14631864E+21    0.25433571E+16     2.1727898         29.494627         12.728742        0.14708633    
  -1.24000    -623.71455         6.4863835         20.776378        0.13913697E+12     146460.31        0.14377170E+21    0.25282437E+16     2.1981409         30.734787         13.581065        0.15982456    
  -1.23000    -611.34228         6.3021094         20.840323        0.13659867E+12     147224.56        0.14114886E+21    0.25152978E+16     2.2275223         31.861038         14.328385        0.17189030    
  -1.22000    -599.32892         6.1157713         20.902414        0.13400827E+12     148026.74        0.13847217E+21    0.25043051E+16     2.2606574         32.843270         14.936721        0.18280969    
  -1.21000    -587.67624         5.9296517         20.962640        0.13138981E+12     148855.97        0.13576649E+21    0.24948956E+16     2.2970466         33.654899         15.377622        0.19212379    
  -1.20000    -576.38166         5.7459657         21.021015        0.12876869E+12     149700.63        0.13305805E+21    0.24865784E+16     2.3359902         34.274460         15.630843        0.19942754    
  -1.19000    -565.43845         5.5667839         21.077574        0.12617025E+12     150548.46        0.13037306E+21    0.24787808E+16     2.3766228         34.686813         15.686160        0.20440515    
  -1.18000    -554.83604         5.3939713         21.132372        0.12361860E+12     151386.65        0.12773641E+21    0.24708906E+16     2.4179584         34.883910         15.544080        0.20685723    
  -1.17000    -544.56050         5.2291442         21.185480        0.12113552E+12     152202.03        0.12517062E+21    0.24622972E+16     2.4589408         34.865083         15.215415        0.20671635    
  -1.16000    -534.59505         5.0736465         21.236986        0.11873975E+12     152981.17        0.12269505E+21    0.24524272E+16     2.4984986         34.636865         14.719877        0.20404947    
  -1.15000    -524.92055         4.9285440         21.286988        0.11644653E+12     153710.65        0.12032543E+21    0.24407739E+16     2.5355964         34.212414         14.083963        0.19904772    
  -1.14000    -515.51608         4.7946328         21.335594        0.11426737E+12     154377.30        0.11807369E+21    0.24269176E+16     2.5692828         33.610621         13.338476        0.19200567    
  -1.13000    -506.35942         4.6724605         21.382919        0.11221015E+12     154968.44        0.11594794E+21    0.24105368E+16     2.5987276         32.855026         12.516032        0.18329375    
  -1.12000    -497.42751         4.5623530         21.429083        0.11027928E+12     155472.12        0.11395275E+21    0.23914122E+16     2.6232498         31.972634         11.648812        0.17332737    
  -1.11000    -488.69684         4.4644443         21.474207        0.10847606E+12     155877.43        0.11208947E+21    0.23694228E+16     2.6423344         30.992752         10.766761        0.16253675    
  -1.10000    -480.14381         4.3787072         21.518413        0.10679906E+12     156174.73        0.11035660E+21    0.23445378E+16     2.6556384         29.945904         9.8963069        0.15134009    
  -1.09000    -471.74502         4.3049794         21.561821        0.10524447E+12     156355.84        0.10875023E+21    0.23168050E+16     2.6629887         28.862885         9.0596131        0.14012223    
  -1.08000    -463.47748         4.2429860         21.604551        0.10380654E+12     156414.34        0.10726440E+21    0.22863387E+16     2.6643726         27.773961         8.2743002        0.12921957    
  -1.07000    -455.31882         4.1923572         21.646719        0.10247786E+12     156345.68        0.10589146E+21    0.22533068E+16     2.6599251         26.708222         7.5535465        0.11891140    
  -1.06000    -447.24748         4.1526399         21.688435        0.10124966E+12     156147.36        0.10462235E+21    0.22179195E+16     2.6499113         25.693054         6.9064664        0.10941692    
  -1.05000    -439.24285         4.1233062         21.729806        0.10011205E+12     155818.99        0.10344684E+21    0.21804191E+16     2.6347096         24.753719         6.3386698        0.10089721    
  -1.04000    -431.28541         4.1037585         21.770934        0.99054231E+11     155362.29        0.10235379E+21    0.21410708E+16     2.6147919         23.913012         5.8529186        0.93460776E-01
  -1.03000    -423.35685         4.0933330         21.811912        0.98064691E+11     154781.05        0.10133129E+21    0.21001556E+16     2.5907048         23.190975         5.4498129        0.87171589E-01
  -1.02000    -415.44022         4.0913038         21.852828        0.97131368E+11     154080.93        0.10036687E+21    0.20579625E+16     2.5630500         22.604665         5.1284548        0.82058480E-01
  -1.01000    -407.52003         4.0968877         21.893763        0.96241845E+11     153269.22        0.99447720E+20    0.20147819E+16     2.5324636         22.167972         4.8870496        0.78124779E-01
  -1.00000    -399.58233         4.1092518         21.934789        0.95383549E+11     152354.53        0.98560834E+20    0.19708986E+16     2.4995966         21.891516         4.7234142        0.75357350E-01
  -0.99000    -391.61485         4.1275236         21.975968        0.94543964E+11     151346.41        0.97693282E+20    0.19265853E+16     2.4650944         21.782616         4.6353741        0.73734347E-01
  -0.98000    -383.60702         4.1508032         22.017356        0.93710858E+11     150254.98        0.96832425E+20    0.18820951E+16     2.4295776         21.845372         4.6210396        0.73231234E-01
  -0.97000    -375.55005         4.1781778         22.058998        0.92872514E+11     149090.56        0.95966155E+20    0.18376558E+16     2.3936249         22.080847         4.6789622        0.73824925E-01
  -0.96000    -367.43688         4.2087356         22.100930        0.92017946E+11     147863.32        0.95083121E+20    0.17934639E+16     2.3577579         22.487381         4.8081850        0.75496154E-01
  -0.95000    -359.26223         4.2415791         22.143180        0.91137095E+11     146583.07        0.94172928E+20    0.17496806E+16     2.3224304         23.061001         5.0082082        0.78230376E-01
  -0.94000    -351.02254         4.2758351         22.185766        0.90220974E+11     145259.08        0.93226290E+20    0.17064301E+16     2.2880215         23.795917         5.2788982        0.82017667E-01
  -0.93000    -342.71588         4.3106602         22.228699        0.89261767E+11     143900.02        0.92235132E+20    0.16637994E+16     2.2548342         24.685062         5.6203689        0.86852112E-01
  -0.92000    -334.34195         4.3452413         22.271979        0.88252866E+11     142513.98        0.91192624E+20    0.16218412E+16     2.2230982         25.720639         6.0328596        0.92731093E-01
  -0.91000    -325.90198         4.3787908         22.315600        0.87188842E+11     141108.56        0.90093156E+20    0.15805781E+16     2.1929775         26.894624         6.5166252        0.99654759E-01
  -0.90000    -317.39872         4.4105378         22.359549        0.86065377E+11     139691.01        0.88932268E+20    0.15400094E+16     2.1645819         28.199187         7.0718421        0.10762577    
  -0.89000    -308.83639         4.4397167         22.403802        0.84879154E+11     138268.39        0.87706531E+20    0.15001186E+16     2.1379801         29.627000         7.6985208        0.11664923    
  -0.88000    -300.22072         4.4655552         22.448332        0.83627731E+11     136847.68        0.86413422E+20    0.14608813E+16     2.1132153         31.171394         8.3964103        0.12673253    
  -0.87000    -291.55891         4.4872658         22.493100        0.82309420E+11     135435.92        0.85051198E+20    0.14222731E+16     2.0903191         32.826380         9.1648725        0.13788488    
  -0.86000    -282.85975         4.5040419         22.538061        0.80923191E+11     134040.27        0.83618793E+20    0.13842760E+16     2.0693256         34.586521         10.002709        0.15011616    
  -0.85000    -274.13356         4.5150611         22.583161        0.79468611E+11     132667.94        0.82115759E+20    0.13468833E+16     2.0502814         36.446678         10.907932        0.16343488    
  -0.84000    -265.39228         4.5194981         22.628340        0.77945828E+11     131326.19        0.80542252E+20    0.13101023E+16     2.0332532         38.401675         11.877475        0.17784516    
  -0.83000    -256.64944         4.5165465         22.673527        0.76355612E+11     130022.12        0.78899065E+20    0.12739550E+16     2.0183304         40.445906         12.906872        0.19334284    
  -0.82000    -247.92008         4.5054485         22.718644        0.74699428E+11     128762.57        0.77187713E+20    0.12384763E+16     2.0056240         42.572941         13.989928        0.20991085    
  -0.81000    -239.22062         4.4855320         22.763606        0.72979543E+11     127553.86        0.75410536E+20    0.12037097E+16     1.9952611         44.775183         15.118433        0.22751440    
  -0.80000    -230.56868         4.4562498         22.808323        0.71199136E+11     126401.61        0.73570823E+20    0.11697025E+16     1.9873750         47.043611         16.281969        0.24609644    
  -0.79000    -221.98278         4.4172191         22.852699        0.69362404E+11     125310.54        0.71672909E+20    0.11364992E+16     1.9820935         49.367658         17.467876        0.26557400    
  -0.78000    -213.48200         4.3682547         22.896634        0.67474621E+11     124284.29        0.69722242E+20    0.11041348E+16     1.9795240         51.735250         18.661410        0.28583620    
  -0.77000    -205.08555         4.3093941         22.940031        0.65542137E+11     123325.30        0.67725387E+20    0.10726289E+16     1.9797393         54.133015         19.846134        0.30674433    
  -0.76000    -196.81236         4.2409089         22.982790        0.63572318E+11     122434.71        0.65689951E+20    0.10419809E+16     1.9827631         56.546672         21.004534        0.32813446    
  -0.75000    -188.68060         4.1633022         23.024818        0.61573391E+11     121612.32        0.63624439E+20    0.10121672E+16     1.9885582         58.961553         22.118812        0.34982265    
  -0.74000    -180.70726         4.0772915         23.066028        0.59554232E+11     120856.62        0.61538021E+20    0.98314037E+15     1.9970182         61.363240         23.171817        0.37161252    
  -0.73000    -172.90775         3.9837774         23.106339        0.57524088E+11     120164.82        0.59440251E+20    0.95483084E+15     2.0079635         63.738252         24.147987        0.39330456    
  -0.72000    -165.29560         3.8838029         23.145682        0.55492269E+11     119532.95        0.57340751E+20    0.92715050E+15     2.0211422         66.074719         25.034218        0.41470633    
  -0.71000    -157.88222         3.7785051         23.183998        0.53467841E+11     118955.99        0.55248888E+20    0.89999801E+15     2.0362356         68.362990         25.820559        0.43564265    
  -0.70000    -150.67677         3.6690656         23.221238        0.51459330E+11     118427.98        0.53173473E+20    0.87326510E+15     2.0528683         70.596128         26.500666        0.45596470    
  -0.69000    -143.68613         3.5566628         23.257369        0.49474484E+11     117942.22        0.51122510E+20    0.84684320E+15     2.0706221         72.770248         27.071971        0.47555728    
  -0.68000    -136.91491         3.4424285         23.292366        0.47520081E+11     117491.41        0.49103005E+20    0.82062977E+15     2.0890518         74.884696         27.535579        0.49434372    
  -0.67000    -130.36563         3.3274129         23.326215        0.45601821E+11     117067.88        0.47120846E+20    0.79453374E+15     2.1077023         76.942057         27.895918        0.51228813    
  -0.66000    -124.03888         3.2125582         23.358914        0.43724272E+11     116663.71        0.45180755E+20    0.76847982E+15     2.1261260         78.948011         28.160208        0.52939514    
  -0.65000    -117.93352         3.0986812         23.390469        0.41890887E+11     116270.98        0.43286298E+20    0.74241138E+15     2.1438983         80.911068         28.337812        0.54570736    
  -0.64000    -112.04699         2.9864643         23.420894        0.40104064E+11     115881.88        0.41439955E+20    0.71629190E+15     2.1606318         82.842206         28.439541        0.56130098    
  -0.63000    -106.37552         2.8764545         23.450206        0.38365254E+11     115488.91        0.39643225E+20    0.69010509E+15     2.1759869         84.754441         28.476978        0.57628014    
  -0.62000    -100.91442         2.7690684         23.478431        0.36675084E+11     115085.00        0.37896754E+20    0.66385392E+15     2.1896794         86.662379         28.461857        0.59077058    
  -0.61000    -95.658306         2.6646016         23.505597        0.35033499E+11     114663.61        0.36200487E+20    0.63755859E+15     2.2014849         88.581773         28.405547        0.60491320    
  -0.60000    -90.601335         2.5632413         23.531734        0.33439910E+11     114218.85        0.34553814E+20    0.61125409E+15     2.2112396         90.529103         28.318642        0.61885778    
  -0.59000    -85.737391         2.4650810         23.556873        0.31893324E+11     113745.52        0.32955710E+20    0.58498722E+15     2.2188386         92.521222         28.210669        0.63275758    
  -0.58000    -81.060258         2.3701351         23.581046        0.30392478E+11     113239.13        0.31404871E+20    0.55881368E+15     2.2242317         94.575052         28.089900        0.64676456    
  -0.57000    -76.563754         2.2783537         23.604286        0.28935949E+11     112695.94        0.29899823E+20    0.53279520E+15     2.2274179         96.707362         27.963253        0.66102570    
  -0.56000    -72.241847         2.1896366         23.626623        0.27522243E+11     112112.98        0.28439026E+20    0.50699702E+15     2.2284388         98.934594         27.836272        0.67568011    
  -0.55000    -68.088737         2.1038451         23.648088        0.26149880E+11     111487.96        0.27020948E+20    0.48148564E+15     2.2273720         101.27276         27.713149        0.69085697    
  -0.54000    -64.098921         2.0208134         23.668710        0.24817450E+11     110819.32        0.25644135E+20    0.45632701E+15     2.2243244         103.73737         27.596789        0.70667412    
  -0.53000    -60.267233         1.9403578         23.688513        0.23523666E+11     110106.15        0.24307254E+20    0.43158509E+15     2.2194253         106.34343         27.488892        0.72323725    
  -0.52000    -56.588877         1.8622849         23.707525        0.22267394E+11     109348.20        0.23009135E+20    0.40732074E+15     2.2128208         109.10541         27.390053        0.74063954    
  -0.51000    -53.059431         1.7863975         23.725766        0.21047678E+11     108545.80        0.21748789E+20    0.38359091E+15     2.2046682         112.03731         27.299862        0.75896161    
  -0.50000    -49.674858         1.7125009         23.743259        0.19863754E+11     107699.89        0.20525428E+20    0.36044816E+15     2.1951318         115.15269         27.217011        0.77827184    
  -0.49000    -46.431488         1.6404068         23.760022        0.18715059E+11     106811.94        0.19338469E+20    0.33794032E+15     2.1843787         118.46472         27.139393        0.79862677    
  -0.48000    -43.326009         1.5699369         23.776073        0.17601222E+11     105883.99        0.18187529E+20    0.31611039E+15     2.1725765         121.98620         27.064196        0.82007157    
  -0.47000    -40.355439         1.5009268         23.791426        0.16522064E+11     104918.58        0.17072424E+20    0.29499657E+15     2.1598908         125.72965         26.987994        0.84264058    
  -0.46000    -37.517101         1.4332279         23.806096        0.15477582E+11     103918.76        0.15993150E+20    0.27463232E+15     2.1464840         129.70727         26.906836        0.86635771    
  -0.45000    -34.808586         1.3667104         23.820094        0.14467936E+11     102888.07        0.14949872E+20    0.25504653E+15     2.1325143         133.93095         26.816332        0.89123686    
  -0.44000    -32.227718         1.3012657         23.833433        0.13493427E+11     101830.56        0.13942902E+20    0.23626360E+15     2.1181352         138.41224         26.711740        0.91728217    
  -0.43000    -29.772506         1.2368083         23.846123        0.12554474E+11     100750.70        0.12972672E+20    0.21830365E+15     2.1034955         143.16229         26.588063        0.94448823    
  -0.42000    -27.441104         1.1732778         23.858173        0.11651589E+11     99653.407        0.12039711E+20    0.20118255E+15     2.0887394         148.19173         26.440155        0.97284024    
  -0.41000    -25.231755         1.1106413         23.869592        0.10785346E+11     98543.987        0.11144613E+20    0.18491205E+15     2.0740072         153.51057         26.262833         1.0023140    
  -0.40000    -23.142737         1.0488943         23.880389        0.99563494E+10     97428.095        0.10288002E+20    0.16949981E+15     2.0594356         159.12804         26.051005         1.0328758    
  -0.39000    -21.172311        0.98806184         23.890573        0.91651998E+10     96311.668        0.94704983E+19    0.15494942E+15     2.0451593         165.05239         25.799808         1.0644824    
  -0.38000    -19.318658        0.92819937         23.900153        0.84124571E+10     95200.844        0.86926813E+19    0.14126037E+15     2.0313119         171.29068         25.504759         1.0970804    
  -0.37000    -17.579824        0.86939170         23.909140        0.76986035E+10     94101.865        0.79550488E+19    0.12842811E+15     2.0180283         177.84857         25.161909         1.1306062    
  -0.36000    -15.953663        0.81175159         23.917545        0.70240065E+10     93020.973        0.72579805E+19    0.11644398E+15     2.0054474         184.73007         24.768002         1.1649849    
  -0.35000    -14.437787        0.75541681         23.925379        0.63888837E+10     91964.279        0.66017014E+19    0.10529532E+15     1.9937156         191.93730         24.320619         1.2001300    
  -0.34000    -13.029520        0.70054578         23.932658        0.57932706E+10     90937.634        0.59862481E+19    0.94965478E+14     1.9829925         199.47026         23.818313         1.2359420    
  -0.33000    -11.725864        0.64731190         23.939396        0.52369942E+10     89946.497        0.54114418E+19    0.85434014E+14     1.9734578         207.32662         23.260718         1.2723077    
  -0.32000    -10.523476        0.59589662         23.945610        0.47196522E+10     88995.805        0.48768667E+19    0.76676881E+14     1.9653213         215.50152         22.648611         1.3090987    
  -0.31000    -9.4186617        0.54648161         23.951320        0.42406009E+10     88089.861        0.43818579E+19    0.68666749E+14     1.9588366         223.98743         21.983942         1.3461702    
  -0.30000    -8.4073806        0.49924051         23.956547        0.37989524E+10     87232.239        0.39254979E+19    0.61373385E+14     1.9543185         232.77396         21.269807         1.3833597    
  -0.29000    -7.4852711        0.45433078         23.961313        0.33935811E+10     86425.725        0.35066234E+19    0.54764136E+14     1.9521677         241.84781         20.510367         1.4204854    
  -0.28000    -6.6476885        0.41188634         23.965642        0.30231388E+10     85672.285        0.31238415E+19    0.48804480E+14     1.9529032         251.19257         19.710724         1.4573451    
  -0.27000    -5.8897568        0.37201143         23.969559        0.26860798E+10     84973.071        0.27755548E+19    0.43458629E+14     1.9572046         260.78862         18.876744         1.4937147    
  -0.26000    -5.2064309        0.33477622         23.973091        0.23806912E+10     84328.473        0.24599935E+19    0.38690178E+14     1.9659695         270.61283         18.014853         1.5293461    
  -0.25000    -4.5925647        0.30021449         23.976264        0.21051295E+10     83738.193        0.21752527E+19    0.34462765E+14     1.9803886         280.63820         17.131811         1.5639647    
  -0.24000    -4.0429825        0.26832329         23.979104        0.18574589E+10     83201.360        0.19193320E+19    0.30740711E+14     2.0020449         290.83326         16.234475         1.5972668    
  -0.23000    -3.5525487        0.23906458         23.981639        0.16356911E+10     82716.666        0.16901769E+19    0.27489640E+14     2.0330445         301.16118         15.329576         1.6289138    
  -0.22000    -3.1162327        0.21236844         23.983894        0.14378225E+10     82282.531        0.14857172E+19    0.24677034E+14     2.0761887         311.57839         14.423505         1.6585260    
  -0.21000    -2.7291666        0.18813756         23.985895        0.12618693E+10     81897.272        0.13039030E+19    0.22272726E+14     2.1351978         322.03279         13.522141         1.6856727    
  -0.20000    -2.3866929        0.16625237         23.987665        0.11058976E+10     81559.309        0.11427357E+19    0.20249314E+14     2.2150040         332.46106         12.630699         1.7098589    
  -0.19000    -2.0844028        0.14657656         23.989227        0.96804810E+09     81267.370        0.10002944E+19    0.18582487E+14     2.3221272         342.78516         11.753626         1.7305081    
  -0.18000    -1.8181629        0.12896248         23.990603        0.84655602E+09     81020.733        0.87475532E+18    0.17251260E+14     2.4651550         352.90757         10.894531         1.7469390    
  -0.17000    -1.5841326        0.11325612         23.991813        0.73976519E+09     80819.492        0.76440723E+18    0.16238107E+14     2.6553429         362.70504         10.056155         1.7583378    
  -0.16000    -1.3787716        0.99301525E-01     23.992874        0.64613742E+09     80664.879        0.66766066E+18    0.15528974E+14     2.9073477         372.02055         9.2403762         1.7637235    
  -0.15000    -1.1988401        0.86944524E-01     23.993804        0.56425742E+09     80559.641        0.58305319E+18    0.15113150E+14     3.2400881         380.65300         8.4482487         1.7619084    
  -0.14000    -1.0413928        0.76035645E-01     23.994618        0.49283414E+09     80508.508        0.50925075E+18    0.14982943E+14     3.6776929         388.34448         7.6800836         1.7514561    
  -0.13000   -0.90376687        0.66432368E-01     23.995329        0.43069914E+09     80518.770        0.44504600E+18    0.15133099E+14     4.2504311         394.76491         6.9355671         1.7306408    
  -0.12000   -0.78356732        0.58000702E-01     23.995950        0.37680280E+09     80601.002        0.38935434E+18    0.15559843E+14     4.9953993         399.49444         6.2139321         1.6974193    
  -0.11000   -0.67864928        0.50616178E-01     23.996492        0.33020892E+09     80769.934        0.34120839E+18    0.16259428E+14     5.9565609         402.00475         5.5141944         1.6494303    
  -0.10000   -0.58709904        0.44164388E-01     23.996966        0.29008832E+09     81045.520        0.29975134E+18    0.17225995E+14     7.1834518         401.64181         4.8354731         1.5840503    
  -0.09000   -0.50721438        0.38541132E-01     23.997379        0.25571187E+09     81454.150        0.26422979E+18    0.18448585E+14     8.7275285         397.61511         4.1774143         1.4985436    
  -0.08000   -0.43748488        0.33652284E-01     23.997739        0.22644340E+09     82029.971        0.23398637E+18    0.19907200E+14     10.634808         389.00145         3.5407315         1.3903627    
  -0.07000   -0.37657276        0.29413449E-01     23.998054        0.20173263E+09     82816.162        0.20845247E+18    0.21567983E+14     12.933394         374.77520         2.9278494         1.2576590    
  -0.06000   -0.32329453        0.25749476E-01     23.998329        0.18110858E+09     83865.880        0.18714142E+18    0.23377993E+14     15.615192         353.88010         2.3435930         1.1000558    
  -0.05000   -0.27660358        0.22593885E-01     23.998570        0.16417329E+09     85242.424        0.16964200E+18    0.25260700E+14     18.613241         325.35701         1.7957825        0.91968251    
  -0.04000   -0.23557404        0.19888251E-01     23.998782        0.15059632E+09     87017.957        0.15561278E+18    0.27114077E+14     21.780086         288.53301         1.2954965        0.72235385    
  -0.03000   -0.19938583        0.17581573E-01     23.998969        0.14010979E+09     89269.967        0.14477693E+18    0.28813783E+14     24.877740         243.25575        0.85669378        0.51859930    
  -0.02000   -0.16731083        0.15629655E-01     23.999135        0.13250416E+09     92074.647        0.13691796E+18    0.30223650E+14     27.592846         190.12350        0.49491659        0.32404890    
  -0.01000   -0.13870034        0.13994515E-01     23.999283        0.12762476E+09     95496.738        0.13187602E+18    0.31213856E+14     29.586365         130.62780        0.22502825        0.15860247    
   0.00000   -0.11297359        0.12643833E-01     23.999416        0.12536894E+09     99576.211        0.12954506E+18    0.31683791E+14     30.572173         67.119195        0.58359873E-01    0.44012223E-01
   0.01000   -0.89607283E-01    0.11550439E-01     23.999537        0.12568400E+09     104313.56        0.12987061E+18    0.31583061E+14     30.398583         2.5492479        0.84398562E-04    0.67605318E-04
   0.02000   -0.68126079E-01    0.10691850E-01     23.999648        0.12856568E+09     109656.94        0.13284828E+18    0.30922981E+14     29.096142        -59.968938        0.47775877E-01    0.40291947E-01
   0.03000   -0.48093955E-01    0.10049847E-01     23.999751        0.13405730E+09     115495.62        0.13852283E+18    0.29773849E+14     26.867277        -117.65175        0.19174238        0.16852201    
   0.04000   -0.29106315E-01    0.96100992E-02     23.999850        0.14224938E+09     121663.77        0.14698780E+18    0.28249145E+14     24.023376        -168.43103        0.41698983        0.37758815    
   0.05000   -0.10782811E-01    0.93618180E-02     23.999944        0.15327979E+09     127956.50        0.15838564E+18    0.26482913E+14     20.900658        -211.13242        0.70603404        0.65057443    
   0.06000    0.72391960E-02    0.92974390E-02     24.000037        0.16733417E+09     134156.17        0.17290817E+18    0.24608015E+14     17.789800        -245.43874         1.0416018        0.96420855    
   0.07000    0.25310592E-01    0.94123272E-02     24.000131        0.18464661E+09     140062.59        0.19079730E+18    0.22740609E+14     14.898408        -271.70662         1.4085513         1.2932609    
   0.08000    0.43775898E-01    0.97044901E-02     24.000226        0.20550047E+09     145519.12        0.21234582E+18    0.20972478E+14     12.345710        -290.72828         1.7948092         1.6146607    
   0.09000    0.62978103E-01    0.10174292E-01     24.000325        0.23022905E+09     150427.75        0.23789812E+18    0.19369951E+14     10.177650        -303.51041         2.1914835         1.9103527    
   0.10000    0.83262949E-01    0.10824158E-01     24.000430        0.25921602E+09     154751.14        0.26785067E+18    0.17976938E+14     8.3894405        -311.10699         2.5924613         2.1685079    
   0.11000    0.10498261        0.11658259E-01     24.000543        0.29289533E+09     158503.69        0.30265185E+18    0.16819774E+14     6.9468325        -314.51284         2.9937816         2.3832839    
   0.12000    0.12849874        0.12682170E-01     24.000664        0.33175034E+09     161736.82        0.34280115E+18    0.15912260E+14     5.8022923        -314.60813         3.3929868         2.5536690    
   0.13000    0.15418484        0.13902493E-01     24.000797        0.37631202E+09     164523.41        0.38884721E+18    0.15260049E+14     4.9055415        -312.13863         3.7885587         2.6819893    
   0.14000    0.18242786        0.15326450E-01     24.000943        0.42715576E+09     166944.59        0.44138458E+18    0.14864075E+14     4.2095022        -307.71774         4.1794799         2.7725071    
   0.15000    0.21362896        0.16961441E-01     24.001104        0.48489680E+09     169080.41        0.50104901E+18    0.14723032E+14     3.6730519        -301.83980         4.5649206         2.8303243    
   0.16000    0.24820342        0.18814586E-01     24.001283        0.55018395E+09     171004.14        0.56851091E+18    0.14835047E+14     3.2618210        -294.89767         4.9440343         2.8606397    
   0.17000    0.28657967        0.20892262E-01     24.001481        0.62369158E+09     172779.50        0.64446713E+18    0.15198719E+14     2.9479236        -287.20077         5.3158408         2.8683125    
   0.18000    0.32919738        0.23199657E-01     24.001701        0.70610994E+09     174459.80        0.72963090E+18    0.15813706E+14     2.7091962        -278.99154         5.6791756         2.8576501    
   0.19000    0.37650477        0.25740377E-01     24.001946        0.79813393E+09     176088.28        0.82472027E+18    0.16680980E+14     2.5282785        -270.45942         6.0326886         2.8323425    
   0.20000    0.42895527        0.28516122E-01     24.002217        0.90045070E+09     177698.90        0.93044528E+18    0.17802859E+14     2.3917123        -261.75231         6.3748778         2.7954798    
   0.21000    0.48700357        0.31526480E-01     24.002517        0.10137266E+10     179317.50        0.10474944E+19    0.19182899E+14     2.2891409        -252.98565         6.7041468         2.7496115    
   0.22000    0.55110141        0.34768829E-01     24.002848        0.11385939E+10     180962.83        0.11765211E+19    0.20825691E+14     2.2126346        -244.24961         7.0188744         2.6968217    
   0.23000    0.62169338        0.38238399E-01     24.003213        0.12756382E+10     182647.58        0.13181305E+19    0.22736611E+14     2.1561418        -235.61443         7.3174909         2.6388043    
   0.24000    0.69921290        0.41928456E-01     24.003614        0.14253876E+10     184379.25        0.14728681E+19    0.24921553E+14     2.1150531        -227.13468         7.5985504         2.5769320    
   0.25000    0.78407869        0.45830621E-01     24.004052        0.15883023E+10     186161.00        0.16412096E+19    0.27386669E+14     2.0858601        -218.85236         7.8607959         2.5123153    
   0.26000    0.87669202        0.49935287E-01     24.004531        0.17647685E+10     187992.32        0.18235541E+19    0.30138129E+14     2.0658922        -210.79935         8.1032113         2.4458525    
   0.27000    0.97743475        0.54232096E-01     24.005052        0.19550936E+10     189869.67        0.20202190E+19    0.33181922E+14     2.0531141        -202.99923         8.3250574         2.3782697    
   0.28000     1.0866684        0.58710453E-01     24.005616        0.21595043E+10     191787.07        0.22314388E+19    0.36523705E+14     2.0459728        -195.46879         8.5258922         2.3101544    
   0.29000     1.2047341        0.63360011E-01     24.006227        0.23781475E+10     193736.64        0.24573651E+19    0.40168692E+14     2.0432806        -188.21919         8.7055751         2.2419819    
   0.30000     1.3319537        0.68171121E-01     24.006884        0.26110928E+10     195709.06        0.26980700E+19    0.44121590E+14     2.0441274        -181.25693         8.8642593         2.1741372    
   0.31000     1.4686312        0.73135197E-01     24.007591        0.28583376E+10     197694.03        0.29535506E+19    0.48386563E+14     2.0478134        -174.58476         9.0023750         2.1069340    
   0.32000     1.6150553        0.78244999E-01     24.008347        0.31198125E+10     199680.64        0.32237354E+19    0.52967209E+14     2.0537979        -168.20240         9.1206071         2.0406294    
   0.33000     1.7715023        0.83494829E-01     24.009156        0.33953893E+10     201657.79        0.35084918E+19    0.57866538E+14     2.0616600        -162.10714         9.2198693         1.9754369    
   0.34000     1.9382388        0.88880659E-01     24.010018        0.36848891E+10     203614.44        0.38076351E+19    0.63086936E+14     2.0710669        -156.29447         9.3012762         1.9115360    
   0.35000     2.1155256        0.94400201E-01     24.010934        0.39880930E+10     205539.92        0.41209389E+19    0.68630122E+14     2.0817502        -150.75841         9.3661097         1.8490788    
   0.36000     2.3036205        0.10005297         24.011906        0.43047527E+10     207424.05        0.44481467E+19    0.74497119E+14     2.0934876        -145.49183         9.4157802         1.7881932    
   0.37000     2.5027824        0.10584035         24.012935        0.46346025E+10     209257.30        0.47889840E+19    0.80688277E+14     2.1060907        -140.48665         9.4517771         1.7289831    
   0.38000     2.7132746        0.11176560         24.014023        0.49773702E+10     211030.82        0.51431695E+19    0.87203391E+14     2.1193981        -135.73387         9.4756128         1.6715267    
   0.39000     2.9353686        0.11783400         24.015171        0.53327863E+10     212736.39        0.55104247E+19    0.94041958E+14     2.1332738        -131.22369         9.4887621         1.6158732    
   0.40000     3.1693480        0.12405278         24.016381        0.57005887E+10     214366.35        0.58904788E+19    0.10120357E+15     2.1476092        -126.94555         9.4926081         1.5620419    
   0.41000     3.4155124        0.13043115         24.017653        0.60805232E+10     215913.51        0.62830692E+19    0.10868845E+15     2.1623280        -122.88834         9.4884043         1.5100237    
   0.42000     3.6741811        0.13698021         24.018990        0.64723387E+10     217371.05        0.66879364E+19    0.11649797E+15     2.1773900        -119.04070         9.4772655         1.4597863    
   0.43000     3.9456963        0.14371280         24.020393        0.68757790E+10     218732.45        0.71048154E+19    0.12463511E+15     2.1927930        -115.39144         9.4601932         1.4112842    
   0.44000     4.2304271        0.15064336         24.021865        0.72905736E+10     219991.47        0.75334272E+19    0.13310476E+15     2.2085691        -111.93007         9.4381340         1.3644708    
   0.45000     4.5287715        0.15778783         24.023407        0.77164331E+10     221142.16        0.79734723E+19    0.14191352E+15     2.2247760        -108.64723         9.4120623         1.3193112    
   0.46000     4.8411600        0.16516363         24.025021        0.81530498E+10     222178.91        0.84246330E+19    0.15106933E+15     2.2414823        -105.53510         9.3830669         1.2757923    
   0.47000     5.1680586        0.17278991         24.026711        0.86001097E+10     223096.52        0.88865847E+19    0.16058059E+15     2.2587501        -102.58752         9.3524195         1.2339281    
   0.48000     5.5099719        0.18068790         24.028478        0.90573134E+10     223890.24        0.93590182E+19    0.17045521E+15     2.2766172        -99.799912         9.3216031         1.1937572    
   0.49000     5.8674483        0.18888153         24.030325        0.95244052E+10     224555.75        0.98416690E+19    0.18069962E+15     2.2950836        -97.168811         9.2922853         1.1553343    
   0.50000     6.2410857        0.19739818         24.032257        0.10001204E+11     225089.15        0.10334350E+20    0.19131815E+15     2.3141048        -94.691284         9.2662322         1.1187143    
   0.51000     6.6315389        0.20626951         24.034275        0.10487628E+11     225486.80        0.10836977E+20    0.20231299E+15     2.3335958        -92.364169         9.2451767         1.0839352    
   0.52000     7.0395290        0.21553224         24.036383        0.10983711E+11     225745.14        0.11349585E+20    0.21368497E+15     2.3534447        -90.183374         9.2306639         1.0510004    
   0.53000     7.4658531        0.22522879         24.038587        0.11489592E+11     225860.54        0.11872318E+20    0.22543504E+15     2.3735366        -88.143391         9.2239090         1.0198678    
   0.54000     7.9113967        0.23540770         24.040889        0.12005494E+11     225828.99        0.12405405E+20    0.23756657E+15     2.3937810        -86.237142         9.2257066        0.99044565    
   0.55000     8.3771451        0.24612392         24.043297        0.12531674E+11     225645.99        0.12949112E+20    0.25008784E+15     2.4141409        -84.456269         9.2364219        0.96260030    
   0.56000     8.8641964        0.25743889         24.045814        0.13068367E+11     225306.43        0.13503683E+20    0.26301436E+15     2.4346540        -82.791846         9.2560855        0.93617286    
   0.57000     9.3737736        0.26942063         24.048448        0.13615734E+11     224804.55        0.14069282E+20    0.27637041E+15     2.4554416        -81.235423         9.2845924        0.91100422    
   0.58000     9.9072384        0.28214409         24.051205        0.14173816E+11     224134.09        0.14645955E+20    0.29018927E+15     2.4767015        -79.780225         9.3219809        0.88696336    
   0.59000     10.466104        0.29569179         24.054093        0.14742529E+11     223288.50        0.15233612E+20    0.30451177E+15     2.4986833        -78.422270         9.3687510        0.86397326    
   0.60000     11.052053        0.31015503         24.057122        0.15321686E+11     222261.31        0.15832061E+20    0.31938316E+15     2.5216486        -77.161151         9.4261610        0.84202906    
   0.61000     11.666952        0.32563579         24.060300        0.15911071E+11     221046.50        0.16441079E+20    0.33484858E+15     2.5458227        -76.000294         9.4964408        0.82120368    
   0.62000     12.312880        0.34224919         24.063638        0.16510542E+11     219639.00        0.17060518E+20    0.35094790E+15     2.5713455        -74.946561         9.5828711        0.80163894    
   0.63000     12.992151        0.36012651         24.067149        0.17120154E+11     218035.04        0.17690437E+20    0.36771074E+15     2.5982310        -74.009221         9.6896978        0.78352277    
   0.64000     13.707355        0.37941844         24.070845        0.17740286E+11     216232.56        0.18331226E+20    0.38515277E+15     2.6263435        -73.198412         9.8218845        0.76705642    
   0.65000     14.461392        0.40029842         24.074743        0.18371733E+11     214231.40        0.18983707E+20    0.40327422E+15     2.6553969        -72.523338         9.9847364        0.75241734    
   0.66000     15.257523        0.42296561         24.078857        0.19015761E+11     212033.42        0.19649188E+20    0.42206112E+15     2.6849781        -71.990523         10.183458        0.73972450    
   0.67000     16.099420        0.44764735         24.083209        0.19674087E+11     209642.48        0.20329443E+20    0.44148947E+15     2.7145940        -71.602432         10.422719        0.72901274    
   0.68000     16.991226        0.47460094         24.087818        0.20348802E+11     207064.25        0.21026634E+20    0.46153174E+15     2.7437330        -71.356773         10.706318        0.72022114    
   0.69000     17.937610        0.50411467         24.092709        0.21042241E+11     204306.10        0.21743171E+20    0.48216477E+15     2.7719323        -71.246643         11.037016        0.71319820    
   0.70000     18.943830        0.53650815         24.097910        0.21756810E+11     201376.80        0.22481543E+20    0.50337729E+15     2.7988365        -71.261553         11.416597        0.70772397    
   0.71000     20.015792        0.57213229         24.103450        0.22494833E+11     198286.50        0.23244150E+20    0.52517533E+15     2.8242339        -71.389206         11.846192        0.70354611    
   0.72000     21.160112        0.61136892         24.109364        0.23258428E+11     195046.65        0.24033180E+20    0.54758377E+15     2.8480613        -71.617688         12.326842        0.70042403    
   0.73000     22.384172        0.65463036         24.115691        0.24049462E+11     191670.21        0.24850564E+20    0.57064281E+15     2.8703715        -71.937667         12.860236        0.69817286    
   0.74000     23.696183        0.70235904         24.122472        0.24869612E+11     188171.96        0.25698034E+20    0.59439903E+15     2.8912670        -72.344111         13.449504        0.69669859    
   0.75000     25.105241        0.75502691         24.129755        0.25720531E+11     184569.00        0.26577298E+20    0.61889177E+15     2.9108102        -72.837101         14.099903        0.69601610    
   0.76000     26.621381        0.81313419         24.137591        0.26604112E+11     180881.13        0.27490311E+20    0.64413684E+15     2.9289266        -73.421466         14.819234        0.69624548    
   0.77000     28.255633        0.87720686         24.146037        0.27522807E+11     177131.32        0.28439609E+20    0.67011013E+15     2.9453207        -74.105183         15.617833        0.69758566    
   0.78000     30.020065        0.94779177         24.155156        0.28479964E+11     173345.77        0.29428649E+20    0.69673458E+15     2.9594230        -74.896698         16.508046        0.70026942    
   0.79000     31.927817         1.0254483         24.165017        0.29480103E+11     169553.83        0.30462103E+20    0.72387333E+15     2.9703847        -75.801590         17.503162        0.70450719    
   0.80000     33.993114         1.1107357         24.175691        0.30529078E+11     165787.38        0.31546020E+20    0.75133163E+15     2.9771252        -76.819125         18.615868        0.71042937    
   0.81000     36.231248         1.2041948         24.187258        0.31634091E+11     162079.95        0.32687842E+20    0.77886839E+15     2.9784330        -77.939347         19.856366        0.71803681    
   0.82000     38.658521         1.3063245         24.199804        0.32803521E+11     158465.49        0.33896227E+20    0.80621662E+15     2.9731060        -79.141267         21.230360        0.72716797    
   0.83000     41.292138         1.4175527         24.213415        0.34046595E+11     154977.00        0.35180709E+20    0.83311032E+15     2.9601107        -80.392590         22.737181        0.73748850    
   0.84000     44.150035         1.5382027         24.228186        0.35372928E+11     151645.22        0.36551222E+20    0.85931362E+15     2.9387308        -81.651096         24.368340        0.74850549    
   0.85000     47.250645         1.6684584         24.244211        0.36792000E+11     148497.45        0.38017564E+20    0.88464729E+15     2.9086795        -82.867532         26.106767        0.75960464    
   0.86000     50.612591         1.8083277         24.261587        0.38312631E+11     145556.77        0.39588849E+20    0.90900812E+15     2.8701520        -83.989513         27.926918        0.77010453    
   0.87000     54.254318         1.9576108         24.280409        0.39942527E+11     142841.56        0.41273037E+20    0.93237791E+15     2.8238106        -84.965795         29.795775        0.77931890    
   0.88000     58.193658         2.1158737         24.300770        0.41687930E+11     140365.47        0.43076581E+20    0.95482100E+15     2.7707080        -85.750186         31.674617        0.78661636    
   0.89000     62.447365         2.2824308         24.322755        0.43553413E+11     138137.72        0.45004205E+20    0.97647176E+15     2.7121681        -86.304531         33.521256        0.79146788    
   0.90000     67.030616         2.4563401         24.346443        0.45541802E+11     136163.55        0.47058828E+20    0.99751527E+15     2.6496497        -86.600417         35.292390        0.79347548    
   0.91000     71.956522         2.6364102         24.371902        0.47654199E+11     134444.83        0.49241590E+20    0.10181656E+16     2.5846181        -86.619568         36.945717        0.79238006    
   0.92000     77.235666         2.8212227         24.399187        0.49890072E+11     132980.63        0.51551941E+20    0.10386458E+16     2.5184449        -86.353124         38.441571        0.78805097    
   0.93000     82.875692         3.0091666         24.428337        0.52247350E+11     131767.72        0.53987742E+20    0.10591724E+16     2.4523447        -85.800204         39.744020        0.78046315    
   0.94000     88.880978         3.1984844         24.459375        0.54722490E+11     130800.92        0.56545330E+20    0.10799466E+16     2.3873471        -84.966163         40.821481        0.76966906    
   0.95000     95.252404         3.3873271         24.492305        0.57310490E+11     130073.40        0.59219538E+20    0.11011511E+16     2.3242986        -83.860915         41.647046        0.75577214    
   0.96000     101.98723         3.5738134         24.527113        0.60004838E+11     129576.78        0.62003637E+20    0.11229516E+16     2.2638825        -82.497552         42.198721        0.73890646    
   0.97000     109.07910         3.7560912         24.563767        0.62797424E+11     129301.29        0.64889245E+20    0.11455011E+16     2.2066467        -80.891391         42.459740        0.71922482    
   0.98000     116.51814         3.9323949         24.602215        0.65678424E+11     129235.79        0.67866213E+20    0.11689448E+16     2.1530316        -79.059409         42.419031        0.69689512    
   0.99000     124.29119         4.1010978         24.642390        0.68636220E+11     129367.93        0.70922536E+20    0.11934232E+16     2.1033922        -77.020004         42.071823        0.67210327    
   1.00000     132.38211         4.2607546         24.684207        0.71657374E+11     129684.23        0.74044325E+20    0.12190737E+16     2.0580133        -74.792941         41.420278        0.64505996    
   1.01000     140.77219         4.4101343         24.727570        0.74726693E+11     130170.32        0.77215885E+20    0.12460284E+16     2.0171180        -72.399383         40.474024        0.61600835    
   1.02000     149.44052         4.5482413         24.772372        0.77827421E+11     130811.09        0.80419900E+20    0.12744108E+16     1.9808698        -69.861898         39.250418        0.58523018    
   1.03000     158.36453         4.6743266         24.818495        0.80941546E+11     131591.01        0.83637759E+20    0.13043286E+16     1.9493717        -67.204402         37.774423        0.55304851    
   1.04000     167.52045         4.7878893         24.865817        0.84050243E+11     132494.37        0.86850009E+20    0.13358657E+16     1.9226621        -64.451978         36.077993        0.51982568    
   1.05000     176.88375         4.8886713         24.914210        0.87134419E+11     133505.59        0.90036921E+20    0.13690728E+16     1.9007103        -61.630573         34.198972        0.48595633    
   1.06000     186.42964         4.9766468         24.963548        0.90175350E+11     134609.44        0.93179147E+20    0.14039581E+16     1.8834124        -58.766566         32.179505        0.45185550    
   1.07000     196.13349         5.0520080         25.013701        0.93155348E+11     135791.28        0.96258411E+20    0.14404777E+16     1.8705868        -55.886215         30.064091        0.41794277    
   1.08000     205.97126         5.1151493         25.064547        0.96058427E+11     137037.23        0.99258193E+20    0.14785288E+16     1.8619732        -53.015001         27.897412        0.38462408    
   1.09000     215.91982         5.1666499         25.115965        0.98870890E+11     138334.24        0.10216434E+21    0.15179439E+16     1.8572331        -50.176905         25.722139        0.35227283    
   1.10000     225.95736         5.2072560         25.167844        0.10158179E+12     139670.11        0.10496555E+21    0.15584900E+16     1.8559542        -47.393645         23.576916        0.32121253    
   1.11000     236.06363         5.2378602         25.220077        0.10418323E+12     141033.39        0.10765363E+21    0.15998707E+16     1.8576599        -44.683949         21.494720        0.29170281    
   1.12000     246.22026         5.2594810         25.272571        0.10667037E+12     142413.27        0.11022362E+21    0.16417339E+16     1.8618217        -42.062913         19.501741        0.26393047    
   1.13000     256.41092         5.2732380         25.325241        0.10904133E+12     143799.34        0.11267357E+21    0.16836836E+16     1.8678778        -39.541515         17.616866        0.23800632    
   1.14000     266.62154         5.2803258         25.378013        0.11129680E+12     145181.40        0.11500417E+21    0.17252958E+16     1.8752536        -37.126342         15.851775        0.21396800    
   1.15000     276.84043         5.2819850         25.430829        0.11343947E+12     146549.22        0.11721821E+21    0.17661363E+16     1.8833851        -34.819562         14.211558        0.19178811    
   1.16000     287.05829         5.2794721         25.483639        0.11547343E+12     147892.38        0.11931993E+21    0.18057795E+16     1.8917413        -32.619156         12.695751        0.17138633    
   1.17000     297.26826         5.2740284         25.536409        0.11740348E+12     149200.15        0.12131427E+21    0.18438263E+16     1.8998448        -30.519384         11.299609        0.15264404    
   1.18000     307.46582         5.2668510         25.589114        0.11923449E+12     150461.52        0.12320627E+21    0.18799183E+16     1.9072876        -28.511436         10.015462        0.13541966    
   1.19000     317.64874         5.2590649         25.641744        0.12097086E+12     151665.26        0.12500048E+21    0.19137488E+16     1.9137415        -26.584191         8.8340239        0.11956323    
   1.20000     327.81684         5.2516993         25.694297        0.12261610E+12     152800.17        0.12670052E+21    0.19450678E+16     1.9189619        -24.725011         7.7455348        0.10492918    
   1.21000     337.97185         5.2456681         25.746782        0.12417256E+12     153855.28        0.12830882E+21    0.19736834E+16     1.9227861        -22.920496         6.7406930        0.91386511E-01
   1.22000     348.11712         5.2417553         25.799217        0.12564127E+12     154820.26        0.12982646E+21    0.19994588E+16     1.9251265        -21.157125         5.8113428        0.78826109E-01
   1.23000     358.25739         5.2406046         25.851626        0.12702194E+12     155685.68        0.13125312E+21    0.20223062E+16     1.9259602        -19.421770         4.9509350        0.67165211E-01
   1.24000     368.39853         5.2427144         25.904040        0.12831302E+12     156443.40        0.13258720E+21    0.20421798E+16     1.9253176        -17.702051         4.1547870        0.56349412E-01
   1.25000     378.54720         5.2484362         25.956493        0.12951179E+12     157086.80        0.13382591E+21    0.20590672E+16     1.9232704        -15.986550         3.4201859        0.46352645E-01
   1.26000     388.71061         5.2579762         26.009022        0.13061455E+12     157610.98        0.13496540E+21    0.20729830E+16     1.9199207        -14.264901         2.7463760        0.37175687E-01
   1.27000     398.89624         5.2714011         26.061665        0.13161675E+12     158012.90        0.13600098E+21    0.20839617E+16     1.9153921        -12.527782         2.1344718        0.28843711E-01
   1.28000     409.11156         5.2886445         26.114462        0.13251312E+12     158291.38        0.13692722E+21    0.20920537E+16     1.9098228        -10.766844         1.5873279        0.21403353E-01
   1.29000     419.36379         5.3095156         26.167450        0.13329784E+12     158447.03        0.13773808E+21    0.20973224E+16     1.9033611        -8.9746025         1.1093905        0.14919672E-01
   1.30000     429.65968         5.3337088         26.220664        0.13396461E+12     158482.16        0.13842706E+21    0.20998430E+16     1.8961639        -7.1443106        0.70654794        0.94732759E-02
   1.31000     440.00526         5.3608133         26.274134        0.13450672E+12     158400.54        0.13898722E+21    0.20997035E+16     1.8883962        -5.2698490        0.38598571        0.51577726E-02
   1.32000     450.40571         5.3903218         26.327888        0.13491713E+12     158207.19        0.13941131E+21    0.20970069E+16     1.8802339        -3.3456421        0.15604755        0.20775840E-02
   1.33000     460.86509         5.4216391         26.381947        0.13518850E+12     157908.16        0.13969171E+21    0.20918748E+16     1.8718673        -1.3666250        0.26089716E-01    0.34601403E-03
   1.34000     471.38629         5.4540891         26.436325        0.13531321E+12     157510.31        0.13982058E+21    0.20844522E+16     1.8635063        0.67172556        0.63089173E-02    0.83339605E-04
   1.35000     481.97076         5.4869207         26.491030        0.13528342E+12     157021.08        0.13978980E+21    0.20749118E+16     1.8553855         2.7732858        0.10751393        0.14145676E-02
   1.36000     492.61847         5.5193137         26.546062        0.13509118E+12     156448.34        0.13959115E+21    0.20634583E+16     1.8477696         4.9411023        0.34080469        0.44664273E-02
   1.37000     503.32773         5.5503839         26.601412        0.13472850E+12     155800.28        0.13921639E+21    0.20503324E+16     1.8409582         7.1771340        0.71712104        0.93631477E-02
   1.38000     514.09506         5.5791905         26.657062        0.13418760E+12     155085.29        0.13865747E+21    0.20358119E+16     1.8352887         9.4819318         1.2466282        0.16220624E-01
   1.39000     524.91515         5.6047454         26.712985        0.13346116E+12     154311.93        0.13790684E+21    0.20202119E+16     1.8311383         11.854271         1.9379184        0.25138709E-01
   1.40000     535.78072         5.6260273         26.769142        0.13254269E+12     153488.90        0.13695777E+21    0.20038823E+16     1.8289235         14.290756         2.7970296        0.36191556E-01
   1.41000     546.68249         5.6420008         26.825487        0.13142689E+12     152624.95        0.13580480E+21    0.19872023E+16     1.8290980         16.785426         3.8263075        0.49416183E-01
   1.42000     557.60920         5.6516425         26.881961        0.13011020E+12     151728.91        0.13444426E+21    0.19705739E+16     1.8321477         19.329378         5.0231714        0.64799695E-01
   1.43000     568.54765         5.6539735         26.938496        0.12859125E+12     150809.55        0.13287471E+21    0.19544117E+16     1.8385851         21.910429         6.3788748        0.82265863E-01
   1.44000     579.48281         5.6480995         26.995013        0.12687137E+12     149875.50        0.13109753E+21    0.19391317E+16     1.8489399         24.512849         7.8773854        0.10166199    
   1.45000     590.39804         5.6332551         27.051428        0.12495502E+12     148935.13        0.12911735E+21    0.19251388E+16     1.8637492         27.117173         9.4945287        0.12274728    
   1.46000     601.27537         5.6088509         27.107647        0.12285021E+12     147996.35        0.12694243E+21    0.19128127E+16     1.8835436         29.700117         11.197553        0.14518395    
   1.47000     612.09593         5.5745194         27.163572        0.12056868E+12     147066.43        0.12458490E+21    0.19024934E+16     1.9088323         32.234632         12.945262        0.16853262    
   1.48000     622.84034         5.5301548         27.219104        0.11812604E+12     146151.80        0.12206089E+21    0.18944673E+16     1.9400842         34.690088         14.688834        0.19225334    
   1.49000     633.48934         5.4759425         27.274142        0.11554163E+12     145257.91        0.11939039E+21    0.18889534E+16     1.9777067         37.032632         16.373387        0.21571352    
   1.50000     644.02428         5.4123730         27.328591        0.11283825E+12     144389.06        0.11659696E+21    0.18860916E+16     2.0220206         39.225726         17.940279        0.23820386    
   1.51000     654.42780         5.3402380         27.382361        0.11004168E+12     143548.38        0.11370724E+21    0.18859324E+16     2.0732325         41.230862         19.330049        0.25896275    
   1.52000     664.68430         5.2606054         27.435371        0.10718007E+12     142737.85        0.11075031E+21    0.18884294E+16     2.1314043         43.008482         20.485811        0.27720907    
   1.53000     674.78051         5.1747758         27.487552        0.10428312E+12     141958.44        0.10775685E+21    0.18934350E+16     2.1964206         44.519080         21.356853        0.29218258    
   1.54000     684.70583         5.0842215         27.538851        0.10138127E+12     141210.39        0.10475835E+21    0.19006995E+16     2.2679571         45.724497         21.902138        0.30319006    
   1.55000     694.45263         4.9905131         27.589226        0.98504872E+11     140493.51        0.10178613E+21    0.19098741E+16     2.3454498         46.589374         22.093390        0.30965420    
   1.56000     704.01636         4.8952394         27.638656        0.95683281E+11     139807.69        0.98870550E+20    0.19205188E+16     2.4280723         47.082739         21.917468        0.31116150    
   1.57000     713.39548         4.7999273         27.687131        0.92944131E+11     139153.35        0.96040158E+20    0.19321146E+16     2.5147222         47.179664         21.377777        0.30750407    
   1.58000     722.59128         4.7059671         27.734659        0.90312645E+11     138531.92        0.93321015E+20    0.19440814E+16     2.6040241         46.862906         20.494526        0.29871020    
   1.59000     731.60757         4.6145495         27.781259        0.87811080E+11     137946.28        0.90736122E+20    0.19558013E+16     2.6943532         46.124413         19.303760        0.28505837    
   1.60000     740.45023         4.5266174         27.826961        0.85458313E+11     137401.12        0.88304983E+20    0.19666461E+16     2.7838833         44.966554         17.855188        0.26707095    
   1.61000     749.12669         4.4428360         27.871805        0.83269554E+11     136903.00        0.86043314E+20    0.19760095E+16     2.8706611         43.402900         16.208941        0.24548551    
   1.62000     757.64538         4.3635813         27.915833        0.81256203E+11     136460.43        0.83962897E+20    0.19833404E+16     2.9527036         41.458418         14.431547        0.22120533    
   1.63000     766.01521         4.2889477         27.959092        0.79425841E+11     136083.52        0.82071565E+20    0.19881755E+16     3.0281126         39.168942         12.591469        0.19523334    
   1.64000     774.24499         4.2187717         28.001627        0.77782343E+11     135783.66        0.80373321E+20    0.19901685E+16     3.0951945         36.579881         10.754655        0.16859729    
   1.65000     782.34301         4.1526695         28.043481        0.76326107E+11     135572.90        0.78868577E+20    0.19891113E+16     3.1525725         33.744216         8.9805451        0.14227520    
   1.66000     790.31664         4.0900859         28.084692        0.75054387E+11     135463.36        0.77554496E+20    0.19849459E+16     3.1992760         30.719906         7.3189157        0.11713047    
   1.67000     798.17205         4.0303486         28.125292        0.73961712E+11     135466.58        0.76425423E+20    0.19777652E+16     3.2347960         27.566960         5.8078529        0.93863906E-01
   1.68000     805.91405         3.9727260         28.165306        0.73040360E+11     135592.96        0.75473379E+20    0.19678015E+16     3.2590987         24.344450         4.4729467        0.72987093E-01
   1.69000     813.54601         3.9164830         28.204751        0.72280871E+11     135851.23        0.74688592E+20    0.19554058E+16     3.2725978         21.107752         3.3276546        0.54817450E-01
   1.70000     821.06992         3.8609333         28.243638        0.71672578E+11     136248.07        0.74060036E+20    0.19410192E+16     3.2760908         17.906281         2.3746232        0.39492195E-01
   1.71000     828.48653         3.8054830         28.281970        0.71204108E+11     136787.88        0.73575961E+20    0.19251409E+16     3.2706689         14.781875         1.6076629        0.26996029E-01
   1.72000     835.79557         3.7496663         28.319747        0.70863852E+11     137472.57        0.73224371E+20    0.19082948E+16     3.2576155         11.767917         1.0140395        0.17196413E-01
   1.73000     842.99599         3.6931688         28.356961        0.70640367E+11     138301.50        0.72993442E+20    0.18909999E+16     3.2383045         8.8891644        0.57677406        0.98806242E-02
   1.74000     850.08630         3.6358395         28.393607        0.70522714E+11     139271.47        0.72871870E+20    0.18737454E+16     3.2141095         6.1621837        0.27671276        0.47900217E-02
   1.75000     857.06489         3.5776914         28.429675        0.70500697E+11     140376.78        0.72849119E+20    0.18569718E+16     3.1863320         3.5962411        0.94215403E-01    0.16485347E-02
   1.76000     863.93029         3.5188904         28.465159        0.70565032E+11     141609.34        0.72915597E+20    0.18410601E+16     3.1561493         1.1944704        0.10403303E-01    0.18405410E-03
   1.77000     870.68153         3.4597346         28.500052        0.70707429E+11     142958.88        0.73062738E+20    0.18263263E+16     3.1245857        -1.0448482        0.79763154E-02    0.14272013E-03
   1.78000     877.31829         3.4006265         28.534354        0.70920611E+11     144413.16        0.73283021E+20    0.18130219E+16     3.0924999        -3.1270365        0.71658756E-01    0.12970043E-02
   1.79000     883.84111         3.3420400         28.568066        0.71198276E+11     145958.34        0.73569934E+20    0.18013385E+16     3.0605888        -5.0598953        0.18835772        0.34489516E-02
   1.80000     890.25148         3.2844848         28.601198        0.71535027E+11     147579.40        0.73917903E+20    0.17914149E+16     3.0293996        -6.8527671        0.34712156        0.64300572E-02
   1.81000     896.55191         3.2284723         28.633761        0.71926277E+11     149260.63        0.74322186E+20    0.17833450E+16     2.9993484        -8.5158060        0.53897671        0.10099116E-01
   1.82000     902.74585         3.1744834         28.665774        0.72368152E+11     150986.18        0.74778780E+20    0.17771868E+16     2.9707405        -10.059446        0.75670482        0.14339122E-01
   1.83000     908.83763         3.1229419         28.697259        0.72857386E+11     152740.72        0.75284311E+20    0.17729700E+16     2.9437907        -11.494041        0.99460340        0.19053968E-01
   1.84000     914.83235         3.0741944         28.728242        0.73391239E+11     154509.95        0.75835946E+20    0.17707033E+16     2.9186411        -12.829639         1.2482570        0.24165431E-01
   1.85000     920.73566         3.0284973         28.758753        0.73967415E+11     156281.16        0.76431315E+20    0.17703797E+16     2.8953769        -14.075860         1.5143324        0.29610644E-01
   1.86000     926.55365         2.9860119         28.788823        0.74584004E+11     158043.66        0.77068443E+20    0.17719819E+16     2.8740393        -15.241831         1.7904032        0.35340113E-01
   1.87000     932.29260         2.9468061         28.818484        0.75239429E+11     159789.03        0.77745701E+20    0.17754855E+16     2.8546361        -16.336170         2.0748031        0.41316223E-01
   1.88000     937.95887         2.9108636         28.847770        0.75932401E+11     161511.20        0.78461757E+20    0.17808621E+16     2.8371498        -17.367003         2.3665071        0.47512148E-01
   1.89000     943.55868         2.8780987         28.876712        0.76661888E+11     163206.30        0.79215543E+20    0.17880819E+16     2.8215452        -18.341998         2.6650397        0.53911074E-01
   1.90000     949.09806         2.8483746         28.905342        0.77427080E+11     164872.37        0.80006224E+20    0.17971151E+16     2.8077739        -19.268430         2.9704102        0.60505723E-01
   1.91000     954.58275         2.8215249         28.933689        0.78227380E+11     166508.90        0.80833183E+20    0.18079335E+16     2.7957786        -20.153272         3.2830752        0.67298131E-01
   1.92000     960.01812         2.7973763         28.961782        0.79062392E+11     168116.19        0.81696009E+20    0.18205099E+16     2.7854940        -21.003301         3.6039268        0.74299655E-01
   1.93000     965.40926         2.7757705         28.989645        0.79931939E+11     169694.75        0.82594522E+20    0.18348181E+16     2.7768460        -21.825198         3.9343014        0.81531110E-01
   1.94000     970.76094         2.7565831         29.017305        0.80836099E+11     171244.70        0.83528800E+20    0.18508301E+16     2.7697484        -22.625624         4.2759966        0.89022828E-01
   1.95000     976.07778         2.7397405         29.044785        0.81775257E+11     172765.19        0.84499242E+20    0.18685131E+16     2.7640974        -23.411235         4.6312847        0.96814399E-01
   1.96000     981.36429         2.7252302         29.072108        0.82750173E+11     174254.04        0.85506633E+20    0.18878262E+16     2.7597657        -24.188624         5.0029038        0.10495379    
   1.97000     986.62501         2.7131075         29.099297        0.83762044E+11     175707.43        0.86552210E+20    0.19087165E+16     2.7565970        -24.964168         5.3940174        0.11349562    
   1.98000     991.86468         2.7034949         29.126378        0.84812561E+11     177119.88        0.87637720E+20    0.19311164E+16     2.7544025        -25.743809         5.8081348        0.12249859    
   1.99000     997.08833         2.6965775         29.153376        0.85903933E+11     178484.32        0.88765447E+20    0.19549423E+16     2.7529608        -26.532806         6.2489968        0.13202205    
   2.00000     1002.3014         2.6925926         29.180319        0.87038890E+11     179792.41        0.89938209E+20    0.19800941E+16     2.7520201        -27.335479         6.7204384        0.14212220    
   2.01000     1007.5098         2.6918153         29.207239        0.88220644E+11     181034.97        0.91159329E+20    0.20064566E+16     2.7513046        -28.155015         7.2262443        0.15284828    
   2.02000     1012.7200         2.6945423         29.234167        0.89452848E+11     182202.61        0.92432578E+20    0.20339014E+16     2.7505203        -28.993346         7.7700130        0.16423908    
   2.03000     1017.9392         2.7010726         29.261142        0.90739534E+11     183286.36        0.93762124E+20    0.20622883E+16     2.7493622        -29.851105         8.3550346        0.17632024    
   2.04000     1023.1749         2.7116889         29.288203        0.92085067E+11     184278.50        0.95152477E+20    0.20914661E+16     2.7475192        -30.727634         8.9841779        0.18910218    
   2.05000     1028.4353         2.7266384         29.315390        0.93494118E+11     185173.30        0.96608465E+20    0.21212719E+16     2.7446765        -31.621008         9.6597660        0.20257834    
   2.06000     1033.7289         2.7461146         29.342750        0.94971650E+11     185967.76        0.98135215E+20    0.21515302E+16     2.7405175        -32.528017         10.383411        0.21672335    
   2.07000     1039.0648         2.7702407         29.370328        0.96522906E+11     186662.23        0.99738144E+20    0.21820512E+16     2.7347250        -33.444083         11.155778        0.23149039    
   2.08000     1044.4518         2.7990541         29.398171        0.98153388E+11     187260.86        0.10142294E+21    0.22126303E+16     2.7269846        -34.363107         11.976255        0.24680746    
   2.09000     1049.8991         2.8324929         29.426325        0.99868787E+11     187771.84        0.10319548E+21    0.22430504E+16     2.7169921        -35.277275         12.842534        0.26257273    
   2.10000     1055.4155         2.8703857         29.454836        0.10167486E+12     188207.39        0.10506172E+21    0.22730872E+16     2.7044665        -36.176885         13.750131        0.27864939    
   2.11000     1061.0092         2.9124442         29.483746        0.10357726E+12     188583.37        0.10702748E+21    0.23025173E+16     2.6891661        -37.050268         14.691901        0.29486124    
   2.12000     1066.6880         2.9582606         29.513097        0.10558120E+12     188918.76        0.10909818E+21    0.23311302E+16     2.6709088        -37.883873         15.657638        0.31099021    
   2.13000     1072.4587         3.0073113         29.542922        0.10769124E+12     189234.80        0.11127850E+21    0.23587405E+16     2.6495915        -38.662554         16.633833        0.32677702    
   2.14000     1078.3270         3.0589665         29.573252        0.10991086E+12     189554.00        0.11357206E+21    0.23852004E+16     2.6252059        -39.370066         17.603693        0.34192595    
   2.15000     1084.2971         3.1125074         29.604108        0.11224218E+12     189899.08        0.11598104E+21    0.24104090E+16     2.5978482        -39.989736         18.547444        0.35611359    
   2.16000     1090.3720         3.1671496         29.635506        0.11468565E+12     190291.87        0.11850590E+21    0.24343190E+16     2.5677192        -40.505229         19.442949        0.36900126    
   2.17000     1096.5530         3.2220720         29.667452        0.11723983E+12     190752.38        0.12114516E+21    0.24569366E+16     2.5351164        -40.901324         20.266595        0.38024957    
   2.18000     1102.8399         3.2764490         29.699945        0.11990127E+12     191297.89        0.12389525E+21    0.24783185E+16     2.5004171        -41.164607         20.994359        0.38953376    
   2.19000     1109.2309         3.3294833         29.732976        0.12266447E+12     191942.42        0.12675050E+21    0.24985630E+16     2.4640564        -41.283994         21.602951        0.39655791    
   2.20000     1115.7225         3.3804370         29.766528        0.12552191E+12     192696.29        0.12970312E+21    0.25177996E+16     2.4265025        -41.251050         22.070920        0.40106673    
   2.21000     1122.3102         3.4286573         29.800576        0.12846415E+12     193565.94        0.13274337E+21    0.25361777E+16     2.3882338        -41.060089         22.379616        0.40285431    
   2.22000     1128.9881         3.4735955         29.835090        0.13147998E+12     194554.01        0.13585966E+21    0.25538558E+16     2.3497187        -40.708089         22.513962        0.40176972    
   2.23000     1135.7494         3.5148181         29.870036        0.13455651E+12     195659.49        0.13903867E+21    0.25709935E+16     2.3114015        -40.194464         22.463017        0.39772016    
   2.24000     1142.5866         3.5520085         29.905373        0.13767937E+12     196878.11        0.14226555E+21    0.25877464E+16     2.2736937        -39.520787         22.220352        0.39067267    
   2.25000     1149.4917         3.5849617         29.941062        0.14083279E+12     198202.73        0.14552402E+21    0.26042632E+16     2.2369702        -38.690501         21.784289        0.38065523    
   2.26000     1156.4564         3.6135723         29.977058        0.14399974E+12     199623.88        0.14879646E+21    0.26206851E+16     2.2015687        -37.708668         21.158019        0.36775783    
   2.27000     1163.4722         3.6378189         30.013318        0.14716207E+12     201130.25        0.15206413E+21    0.26371454E+16     2.1677905        -36.581780         20.349627        0.35213335    
   2.28000     1170.5307         3.6577462         30.049800        0.15030067E+12     202709.30        0.15530728E+21    0.26537695E+16     2.1359023        -35.317605         19.371994        0.33399761    
   2.29000     1177.6236         3.6734478         30.086459        0.15339575E+12     204347.69        0.15850546E+21    0.26706728E+16     2.1061363        -33.925059         18.242546        0.31362761    
   2.30000     1184.7430         3.6850506         30.123255        0.15642707E+12     206031.79        0.16163776E+21    0.26879593E+16     2.0786908        -32.414065         16.982820        0.29135709    
   2.31000     1191.8809         3.6927024         30.160147        0.15937433E+12     207748.09        0.16468319E+21    0.27057187E+16     2.0537301        -30.795386         15.617826        0.26756900    
   2.32000     1199.0300         3.6965619         30.197097        0.16221747E+12     209483.50        0.16762104E+21    0.27240244E+16     2.0313861        -29.080426         14.175228        0.24268494    
   2.33000     1206.1830         3.6967924         30.234066        0.16493704E+12     211225.61        0.17043119E+21    0.27429335E+16     2.0117601        -27.281014         12.684405        0.21715249    
   2.34000     1213.3331         3.6935566         30.271021        0.16751450E+12     212962.83        0.17309451E+21    0.27624877E+16     1.9949273        -25.409184         11.175442        0.19143131    
   2.35000     1220.4737         3.6870141         30.307926        0.16993249E+12     214684.56        0.17559305E+21    0.27827173E+16     1.9809421        -23.477001         9.6781543        0.16597937    
   2.36000     1227.5985         3.6773186         30.344751        0.17217506E+12     216381.19        0.17791032E+21    0.28036458E+16     1.9698449        -21.496442         8.2211829        0.14124017    
   2.37000     1234.7017         3.6646166         30.381463        0.17422780E+12     218044.16        0.18003144E+21    0.28252960E+16     1.9616685        -19.479358         6.8312102        0.11763143    
   2.38000     1241.7774         3.6490461         30.418033        0.17607803E+12     219666.03        0.18194329E+21    0.28476949E+16     1.9564440        -17.437511         5.5322914        0.95535235E-01
   2.39000     1248.8204         3.6307349         30.454435        0.17771491E+12     221240.52        0.18363471E+21    0.28708776E+16     1.9542041        -15.382676         4.3452880        0.75289365E-01
   2.40000     1255.8254         3.6098005         30.490639        0.17912967E+12     222762.54        0.18509659E+21    0.28948886E+16     1.9549850        -13.326784         3.2873744        0.57179251E-01
   2.41000     1262.7875         3.5863499         30.526622        0.18031575E+12     224228.34        0.18632218E+21    0.29197796E+16     1.9588244        -11.282060         2.3715995        0.41430261E-01
   2.42000     1269.7018         3.5604803         30.562358        0.18126905E+12     225635.56        0.18730724E+21    0.29456054E+16     1.9657578        -9.2611245         1.6065047        0.28200342E-01
   2.43000     1276.5638         3.5322805         30.597824        0.18198815E+12     226983.33        0.18805029E+21    0.29724174E+16     1.9758128        -7.2770370        0.99582535        0.17573482E-01
   2.44000     1283.3690         3.5018329         30.632996        0.18247452E+12     228272.40        0.18855286E+21    0.30002561E+16     1.9890020        -5.3432447        0.53832337        0.95548611E-02
   2.45000     1290.1132         3.4692162         30.667853        0.18273260E+12     229505.10        0.18881954E+21    0.30291437E+16     2.0053166        -3.4734481        0.22780779        0.40687321E-02
   2.46000     1296.7923         3.4345071         30.702374        0.18276993E+12     230685.43        0.18885811E+21    0.30590786E+16     2.0247202        -1.6813851        0.53391243E-01    0.96000135E-03
   2.47000     1303.4023         3.3977829         30.736537        0.18259696E+12     231818.96        0.18867937E+21    0.30900321E+16     2.0471449        0.19442710E-01    0.71324385E-05    0.12916724E-06
   2.48000     1309.9393         3.3591222         30.770323        0.18222689E+12     232912.78        0.18829698E+21    0.31219486E+16     2.0724899         1.6160667        0.49176985E-01    0.89740699E-03
   2.49000     1316.3997         3.3186062         30.803713        0.18167532E+12     233975.35        0.18772704E+21    0.31547489E+16     2.1006224         3.0963343        0.17997928        0.33110327E-02
   2.50000     1322.7800         3.2763178         30.836689        0.18095981E+12     235016.34        0.18698769E+21    0.31883365E+16     2.1313813         4.4491400        0.37013926        0.68678253E-02
   2.51000     1329.0768         3.2323421         30.869234        0.18009936E+12     236046.42        0.18609858E+21    0.32226057E+16     2.1645824         5.6645713        0.59714135        0.11180049E-01
   2.52000     1335.2870         3.1867657         30.901331        0.17911393E+12     237077.11        0.18508033E+21    0.32574502E+16     2.2000246         6.7339533        0.83926763        0.15862750E-01
   2.53000     1341.4075         3.1396774         30.932964        0.17802399E+12     238120.48        0.18395408E+21    0.32927708E+16     2.2374951         7.6497906         1.0764863        0.20549279E-01
   2.54000     1347.4356         3.0911697         30.964119        0.17685009E+12     239189.01        0.18274108E+21    0.33284794E+16     2.2767728         8.4056262         1.2911489        0.24904197E-01
   2.55000     1353.3684         3.0413422         30.994783        0.17561266E+12     240295.30        0.18146243E+21    0.33644999E+16     2.3176284         8.9958572         1.4684928        0.28633410E-01
   2.56000     1359.2037         2.9903061         31.024942        0.17433182E+12     241451.84        0.18013893E+21    0.34007646E+16     2.3598207         9.4155542         1.5969795        0.31492008E-01
   2.57000     1364.9392         2.9381903         31.054586        0.17302736E+12     242670.75        0.17879101E+21    0.34372060E+16     2.4030892         9.6603416         1.6685170        0.33290639E-01
   2.58000     1370.5729         2.8851480         31.083703        0.17171877E+12     243963.49        0.17743883E+21    0.34737462E+16     2.4471435         9.7263826         1.6786160        0.33901381E-01
   2.59000     1376.1032         2.8313632         31.112286        0.17042531E+12     245340.51        0.17610229E+21    0.35102840E+16     2.4916513         9.6105067         1.6265131        0.33263806E-01
   2.60000     1381.5289         2.7770561         31.140329        0.16916614E+12     246810.93        0.17480117E+21    0.35466836E+16     2.5362270         9.3104920         1.5152685        0.31391441E-01
   2.61000     1386.8493         2.7224854         31.167826        0.16796025E+12     248382.21        0.17355512E+21    0.35827651E+16     2.5804232         8.8254930         1.3518091        0.28378085E-01
   2.62000     1392.0640         2.6679488         31.194778        0.16682652E+12     250059.75        0.17238362E+21    0.36183006E+16     2.6237272         8.1565801         1.1468647        0.24402742E-01
   2.63000     1397.1735         2.6137783         31.221187        0.16578350E+12     251846.70        0.17130585E+21    0.36530158E+16     2.6655656         7.3073336        0.91472397        0.19731298E-01
   2.64000     1402.1789         2.5603327         31.247056        0.16484918E+12     253743.65        0.17034041E+21    0.36865991E+16     2.7053175         6.2844168        0.67274059        0.14712782E-01
   2.65000     1407.0818         2.5079861         31.272397        0.16404068E+12     255748.57        0.16950497E+21    0.37187185E+16     2.7423373         5.0980416        0.44054391        0.97682600E-02
   2.66000     1411.8849         2.4571144         31.297221        0.16337380E+12     257856.76        0.16881589E+21    0.37490440E+16     2.7759857         3.7622431        0.23895000        0.53711615E-02
   2.67000     1416.5912         2.4080798         31.321545        0.16286262E+12     260061.03        0.16828768E+21    0.37772743E+16     2.8056677         2.2948862        0.88628751E-01    0.20191665E-02
   2.68000     1421.2047         2.3612165         31.345390        0.16251900E+12     262351.87        0.16793261E+21    0.38031664E+16     2.8308725        0.71735734        0.86418381E-02    0.19947739E-03
   2.69000     1425.7299         2.3168167         31.368778        0.16235223E+12     264717.89        0.16776029E+21    0.38265619E+16     2.8512125       -0.94607507        0.15015519E-01    0.35101365E-03
   2.70000     1430.1717         2.2751206         31.391735        0.16236875E+12     267146.21        0.16777735E+21    0.38474091E+16     2.8664544        -2.6692038        0.11953548        0.28283858E-02
   2.71000     1434.5357         2.2363090         31.414290        0.16257194E+12     269622.97        0.16798731E+21    0.38657767E+16     2.8765392        -4.4250602        0.32893861        0.78729666E-02
   2.72000     1438.8274         2.2005008         31.436471        0.16296219E+12     272133.91        0.16839056E+21    0.38818567E+16     2.8815872        -6.1872155        0.64462661        0.15595716E-01
   2.73000     1443.0528         2.1677541         31.458310        0.16353705E+12     274664.84        0.16898457E+21    0.38959546E+16     2.8818864        -7.9310728         1.0629453        0.25974608E-01
   2.74000     1447.2178         2.1380708         31.479837        0.16429161E+12     277202.18        0.16976426E+21    0.39084689E+16     2.8778649        -9.6350028         1.5759773        0.38866908E-01
   2.75000     1451.3283         2.1114051         31.501082        0.16521904E+12     279733.36        0.17072259E+21    0.39198603E+16     2.8700511        -11.281192         2.1727058        0.54033692E-01
   2.76000     1455.3901         2.0876730         31.522075        0.16631122E+12     282247.13        0.17185115E+21    0.39306151E+16     2.8590258        -12.856103         2.8403454        0.71171742E-01
   2.77000     1459.4087         2.0667634         31.542844        0.16755945E+12     284733.84        0.17314095E+21    0.39412064E+16     2.8453742        -14.350509         3.5656148        0.89946725E-01
   2.78000     1463.3895         2.0485487         31.563419        0.16895505E+12     287185.46        0.17458305E+21    0.39520597E+16     2.8296415        -15.759100         4.3357565        0.11002181    
   2.79000     1467.3376         2.0328945         31.583824        0.17049002E+12     289595.67        0.17616914E+21    0.39635254E+16     2.8123011        -17.079753         5.1391705        0.13107743    
   2.80000     1471.2577         2.0196665         31.604085        0.17215729E+12     291959.68        0.17789196E+21    0.39758632E+16     2.7937345        -18.312590         5.9656237        0.15282023    
   2.81000     1475.1544         2.0087355         31.624225        0.17395101E+12     294274.14        0.17974543E+21    0.39892395E+16     2.7742288        -19.458959         6.8060805        0.17498199    
   2.82000     1479.0322         1.9999795         31.644267        0.17586642E+12     296536.86        0.18172464E+21    0.40037371E+16     2.7539861        -20.520523         7.6522766        0.19731120    
   2.83000     1482.8950         1.9932827         31.664231        0.17789958E+12     298746.62        0.18382552E+21    0.40193746E+16     2.7331451        -21.498563         8.4961991        0.21956183    
   2.84000     1486.7467         1.9885336         31.684139        0.18004700E+12     300902.97        0.18604447E+21    0.40361330E+16     2.7118066        -22.393605         9.3296383        0.24148358    
   2.85000     1490.5911         1.9856210         31.704008        0.18230514E+12     303006.03        0.18837783E+21    0.40539810E+16     2.6900598        -23.205379         10.143951        0.26281753    
   2.86000     1494.4315         1.9844305         31.723857        0.18467000E+12     305056.46        0.19082147E+21    0.40728983E+16     2.6680032        -23.933080         10.930107        0.28329915    
   2.87000     1498.2712         1.9848416         31.743702        0.18713678E+12     307055.34        0.19337043E+21    0.40928884E+16     2.6457564        -24.575840         11.679031        0.30266881    
   2.88000     1502.1131         1.9867262         31.763559        0.18969979E+12     309004.22        0.19601881E+21    0.41139817E+16     2.6234611        -25.133271         12.382142        0.32068736    
   2.89000     1505.9600         1.9899486         31.783441        0.19235248E+12     310905.18        0.19875986E+21    0.41362280E+16     2.6012722        -25.605945         13.031977        0.33715310    
   2.90000     1509.8143         1.9943673         31.803362        0.19508773E+12     312760.86        0.20158622E+21    0.41596786E+16     2.5793421        -25.995701         13.622722        0.35191563    
   2.91000     1513.6782         1.9998383         31.823332        0.19789827E+12     314574.53        0.20449039E+21    0.41843654E+16     2.5578008        -26.305678         14.150504        0.36488282    
   2.92000     1517.5535         2.0062182         31.843362        0.20077712E+12     316350.14        0.20746514E+21    0.42102789E+16     2.5367388        -26.540092         14.613356        0.37601856    
   2.93000     1521.4420         2.0133681         31.863459        0.20371800E+12     318092.27        0.21050397E+21    0.42373510E+16     2.5161942        -26.703758         15.010842        0.38533137    
   2.94000     1525.3450         2.0211556         31.883631        0.20671556E+12     319806.07        0.21360138E+21    0.42654477E+16     2.4961494        -26.801481         15.343401        0.39285586    
   2.95000     1529.2635         2.0294557         31.903884        0.20976549E+12     321497.23        0.21675291E+21    0.42943709E+16     2.4765359        -26.837397         15.611539        0.39863073    
   2.96000     1533.1985         2.0381493         31.924221        0.21286432E+12     323171.79        0.21995496E+21    0.43238729E+16     2.4572490        -26.814408         15.815036        0.40267773    
   2.97000     1537.1506         2.0471208         31.944648        0.21600903E+12     324836.04        0.22320442E+21    0.43536787E+16     2.4381678        -26.733786         15.952315        0.40498553    
   2.98000     1541.1203         2.0562542         31.965164        0.21919648E+12     326496.39        0.22649805E+21    0.43835156E+16     2.4191795        -26.595042         16.020122        0.40550173    
   2.99000     1545.1076         2.0654281         31.985773        0.22242277E+12     328159.20        0.22983181E+21    0.44131430E+16     2.4002024        -26.396052         16.013567        0.40413468    
   3.00000     1549.1127         2.0745124         32.006473        0.22568259E+12     329830.65        0.23320021E+21    0.44423811E+16     2.3812056        -26.133449         15.926575        0.40076501    
